# Gemini GMOS-S OVI continuum filter G0348
# Parallel beam at 4.12 degrees AOI

# Effective wavelength:
678.0

# Wavelength Transmittance
#   (nm)         (%)
300.0  0.00000
300.1  0.00000
300.2  0.00000
300.3  0.00000
300.4  0.00000
300.5  0.00000
300.6  0.00000
300.7  0.00000
300.8  0.00000
300.9  0.00000
301.0  0.00000
301.1  0.00000
301.2  0.00000
301.3  0.00000
301.4  0.00000
301.5  0.00000
301.6  0.00000
301.7  0.00000
301.8  0.00000
301.9  0.00000
302.0  0.00000
302.1  0.00000
302.2  0.00000
302.3  0.00000
302.4  0.00000
302.5  0.00000
302.6  0.00000
302.7  0.00000
302.8  0.00000
302.9  0.00000
303.0  0.00000
303.1  0.00000
303.2  0.00000
303.3  0.00000
303.4  0.00000
303.5  0.00000
303.6  0.00000
303.7  0.00000
303.8  0.00000
303.9  0.00000
304.0  0.00000
304.1  0.00000
304.2  0.00000
304.3  0.00000
304.4  0.00000
304.5  0.00000
304.6  0.00000
304.7  0.00000
304.8  0.00000
304.9  0.00000
305.0  0.00000
305.1  0.00000
305.2  0.00000
305.3  0.00000
305.4  0.00000
305.5  0.00000
305.6  0.00000
305.7  0.00000
305.8  0.00000
305.9  0.00000
306.0  0.00000
306.1  0.00000
306.2  0.00000
306.3  0.00000
306.4  0.00000
306.5  0.00000
306.6  0.00000
306.7  0.00000
306.8  0.00000
306.9  0.00000
307.0  0.00000
307.1  0.00000
307.2  0.00000
307.3  0.00000
307.4  0.00000
307.5  0.00000
307.6  0.00000
307.7  0.00000
307.8  0.00000
307.9  0.00000
308.0  0.00000
308.1  0.00000
308.2  0.00000
308.3  0.00000
308.4  0.00000
308.5  0.00000
308.6  0.00000
308.7  0.00000
308.8  0.00000
308.9  0.00000
309.0  0.00000
309.1  0.00000
309.2  0.00000
309.3  0.00000
309.4  0.00000
309.5  0.00000
309.6  0.00000
309.7  0.00000
309.8  0.00000
309.9  0.00000
310.0  0.00000
310.1  0.00000
310.2  0.00000
310.3  0.00000
310.4  0.00000
310.5  0.00000
310.6  0.00000
310.7  0.00000
310.8  0.00000
310.9  0.00000
311.0  0.00000
311.1  0.00000
311.2  0.00000
311.3  0.00000
311.4  0.00000
311.5  0.00000
311.6  0.00000
311.7  0.00000
311.8  0.00000
311.9  0.00000
312.0  0.00000
312.1  0.00000
312.2  0.00000
312.3  0.00000
312.4  0.00000
312.5  0.00000
312.6  0.00000
312.7  0.00000
312.8  0.00000
312.9  0.00000
313.0  0.00000
313.1  0.00000
313.2  0.00000
313.3  0.00000
313.4  0.00000
313.5  0.00000
313.6  0.00000
313.7  0.00000
313.8  0.00000
313.9  0.00000
314.0  0.00000
314.1  0.00000
314.2  0.00000
314.3  0.00000
314.4  0.00000
314.5  0.00000
314.6  0.00000
314.7  0.00000
314.8  0.00000
314.9  0.00000
315.0  0.00000
315.1  0.00000
315.2  0.00000
315.3  0.00000
315.4  0.00000
315.5  0.00000
315.6  0.00000
315.7  0.00000
315.8  0.00000
315.9  0.00000
316.0  0.00000
316.1  0.00000
316.2  0.00000
316.3  0.00000
316.4  0.00000
316.5  0.00000
316.6  0.00000
316.7  0.00000
316.8  0.00000
316.9  0.00000
317.0  0.00000
317.1  0.00000
317.2  0.00000
317.3  0.00000
317.4  0.00000
317.5  0.00000
317.6  0.00000
317.7  0.00000
317.8  0.00000
317.9  0.00000
318.0  0.00000
318.1  0.00000
318.2  0.00000
318.3  0.00000
318.4  0.00000
318.5  0.00000
318.6  0.00000
318.7  0.00000
318.8  0.00000
318.9  0.00000
319.0  0.00000
319.1  0.00000
319.2  0.00000
319.3  0.00000
319.4  0.00000
319.5  0.00000
319.6  0.00000
319.7  0.00000
319.8  0.00000
319.9  0.00000
320.0  0.00000
320.1  0.00000
320.2  0.00000
320.3  0.00000
320.4  0.00000
320.5  0.00000
320.6  0.00000
320.7  0.00000
320.8  0.00000
320.9  0.00000
321.0  0.00000
321.1  0.00000
321.2  0.00000
321.3  0.00000
321.4  0.00000
321.5  0.00000
321.6  0.00000
321.7  0.00000
321.8  0.00000
321.9  0.00000
322.0  0.00000
322.1  0.00000
322.2  0.00000
322.3  0.00000
322.4  0.00000
322.5  0.00000
322.6  0.00000
322.7  0.00000
322.8  0.00000
322.9  0.00000
323.0  0.00000
323.1  0.00000
323.2  0.00000
323.3  0.00000
323.4  0.00000
323.5  0.00000
323.6  0.00000
323.7  0.00000
323.8  0.00000
323.9  0.00000
324.0  0.00000
324.1  0.00000
324.2  0.00000
324.3  0.00000
324.4  0.00000
324.5  0.00000
324.6  0.00000
324.7  0.00000
324.8  0.00000
324.9  0.00000
325.0  0.00000
325.1  0.00000
325.2  0.00000
325.3  0.00000
325.4  0.00000
325.5  0.00000
325.6  0.00000
325.7  0.00000
325.8  0.00000
325.9  0.00000
326.0  0.00000
326.1  0.00000
326.2  0.00000
326.3  0.00000
326.4  0.00000
326.5  0.00000
326.6  0.00000
326.7  0.00000
326.8  0.00000
326.9  0.00000
327.0  0.00000
327.1  0.00000
327.2  0.00000
327.3  0.00000
327.4  0.00000
327.5  0.00000
327.6  0.00000
327.7  0.00000
327.8  0.00000
327.9  0.00000
328.0  0.00000
328.1  0.00000
328.2  0.00000
328.3  0.00000
328.4  0.00000
328.5  0.00000
328.6  0.00000
328.7  0.00000
328.8  0.00000
328.9  0.00000
329.0  0.00000
329.1  0.00000
329.2  0.00000
329.3  0.00000
329.4  0.00000
329.5  0.00000
329.6  0.00000
329.7  0.00000
329.8  0.00000
329.9  0.00000
330.0  0.00000
330.1  0.00000
330.2  0.00000
330.3  0.00000
330.4  0.00000
330.5  0.00000
330.6  0.00000
330.7  0.00000
330.8  0.00000
330.9  0.00000
331.0  0.00000
331.1  0.00000
331.2  0.00000
331.3  0.00000
331.4  0.00000
331.5  0.00000
331.6  0.00000
331.7  0.00000
331.8  0.00000
331.9  0.00000
332.0  0.00000
332.1  0.00000
332.2  0.00000
332.3  0.00000
332.4  0.00000
332.5  0.00000
332.6  0.00000
332.7  0.00000
332.8  0.00000
332.9  0.00000
333.0  0.00000
333.1  0.00000
333.2  0.00000
333.3  0.00000
333.4  0.00000
333.5  0.00000
333.6  0.00000
333.7  0.00000
333.8  0.00000
333.9  0.00000
334.0  0.00000
334.1  0.00000
334.2  0.00000
334.3  0.00000
334.4  0.00000
334.5  0.00000
334.6  0.00000
334.7  0.00000
334.8  0.00000
334.9  0.00000
335.0  0.00000
335.1  0.00000
335.2  0.00000
335.3  0.00000
335.4  0.00000
335.5  0.00000
335.6  0.00000
335.7  0.00000
335.8  0.00000
335.9  0.00000
336.0  0.00000
336.1  0.00000
336.2  0.00000
336.3  0.00000
336.4  0.00000
336.5  0.00000
336.6  0.00000
336.7  0.00000
336.8  0.00000
336.9  0.00000
337.0  0.00000
337.1  0.00000
337.2  0.00000
337.3  0.00000
337.4  0.00000
337.5  0.00000
337.6  0.00000
337.7  0.00000
337.8  0.00000
337.9  0.00000
338.0  0.00000
338.1  0.00000
338.2  0.00000
338.3  0.00000
338.4  0.00000
338.5  0.00000
338.6  0.00000
338.7  0.00000
338.8  0.00000
338.9  0.00000
339.0  0.00000
339.1  0.00000
339.2  0.00000
339.3  0.00000
339.4  0.00000
339.5  0.00000
339.6  0.00000
339.7  0.00000
339.8  0.00000
339.9  0.00000
340.0  0.00000
340.1  0.00000
340.2  0.00000
340.3  0.00000
340.4  0.00000
340.5  0.00000
340.6  0.00000
340.7  0.00000
340.8  0.00000
340.9  0.00000
341.0  0.00000
341.1  0.00000
341.2  0.00000
341.3  0.00000
341.4  0.00000
341.5  0.00000
341.6  0.00000
341.7  0.00000
341.8  0.00000
341.9  0.00000
342.0  0.00000
342.1  0.00000
342.2  0.00000
342.3  0.00000
342.4  0.00000
342.5  0.00000
342.6  0.00000
342.7  0.00000
342.8  0.00000
342.9  0.00000
343.0  0.00000
343.1  0.00000
343.2  0.00000
343.3  0.00000
343.4  0.00000
343.5  0.00000
343.6  0.00000
343.7  0.00000
343.8  0.00000
343.9  0.00000
344.0  0.00000
344.1  0.00000
344.2  0.00000
344.3  0.00000
344.4  0.00000
344.5  0.00000
344.6  0.00000
344.7  0.00000
344.8  0.00000
344.9  0.00000
345.0  0.00000
345.1  0.00000
345.2  0.00000
345.3  0.00000
345.4  0.00000
345.5  0.00000
345.6  0.00000
345.7  0.00000
345.8  0.00000
345.9  0.00000
346.0  0.00000
346.1  0.00000
346.2  0.00000
346.3  0.00000
346.4  0.00000
346.5  0.00000
346.6  0.00000
346.7  0.00000
346.8  0.00000
346.9  0.00000
347.0  0.00000
347.1  0.00000
347.2  0.00000
347.3  0.00000
347.4  0.00000
347.5  0.00000
347.6  0.00000
347.7  0.00000
347.8  0.00000
347.9  0.00000
348.0  0.00000
348.1  0.00000
348.2  0.00000
348.3  0.00000
348.4  0.00000
348.5  0.00000
348.6  0.00000
348.7  0.00000
348.8  0.00000
348.9  0.00000
349.0  0.00000
349.1  0.00000
349.2  0.00000
349.3  0.00000
349.4  0.00000
349.5  0.00000
349.6  0.00000
349.7  0.00000
349.8  0.00000
349.9  0.00000
350.0  0.00000
350.1  0.00000
350.2  0.00000
350.3  0.00000
350.4  0.00000
350.5  0.00000
350.6  0.00000
350.7  0.00000
350.8  0.00000
350.9  0.00000
351.0  0.00000
351.1  0.00000
351.2  0.00000
351.3  0.00000
351.4  0.00000
351.5  0.00000
351.6  0.00000
351.7  0.00000
351.8  0.00000
351.9  0.00000
352.0  0.00000
352.1  0.00000
352.2  0.00000
352.3  0.00000
352.4  0.00000
352.5  0.00000
352.6  0.00000
352.7  0.00000
352.8  0.00000
352.9  0.00000
353.0  0.00000
353.1  0.00000
353.2  0.00000
353.3  0.00000
353.4  0.00000
353.5  0.00000
353.6  0.00000
353.7  0.00000
353.8  0.00000
353.9  0.00000
354.0  0.00000
354.1  0.00000
354.2  0.00000
354.3  0.00000
354.4  0.00000
354.5  0.00000
354.6  0.00000
354.7  0.00000
354.8  0.00000
354.9  0.00000
355.0  0.00000
355.1  0.00000
355.2  0.00000
355.3  0.00000
355.4  0.00001
355.5  0.00001
355.6  0.00001
355.7  0.00001
355.8  0.00001
355.9  0.00001
356.0  0.00001
356.1  0.00001
356.2  0.00001
356.3  0.00001
356.4  0.00001
356.5  0.00001
356.6  0.00001
356.7  0.00001
356.8  0.00001
356.9  0.00001
357.0  0.00001
357.1  0.00002
357.2  0.00002
357.3  0.00002
357.4  0.00002
357.5  0.00001
357.6  0.00001
357.7  0.00001
357.8  0.00000
357.9  0.00000
358.0  0.00000
358.1  0.00000
358.2  0.00000
358.3  0.00000
358.4  0.00000
358.5  0.00000
358.6  0.00000
358.7  0.00000
358.8  0.00000
358.9  0.00000
359.0  0.00000
359.1  0.00000
359.2  0.00000
359.3  0.00000
359.4  0.00000
359.5  0.00000
359.6  0.00000
359.7  0.00000
359.8  0.00000
359.9  0.00000
360.0  0.00000
360.1  0.00000
360.2  0.00000
360.3  0.00000
360.4  0.00000
360.5  0.00000
360.6  0.00000
360.7  0.00000
360.8  0.00000
360.9  0.00000
361.0  0.00000
361.1  0.00000
361.2  0.00000
361.3  0.00000
361.4  0.00000
361.5  0.00000
361.6  0.00000
361.7  0.00000
361.8  0.00000
361.9  0.00000
362.0  0.00000
362.1  0.00000
362.2  0.00000
362.3  0.00000
362.4  0.00000
362.5  0.00000
362.6  0.00000
362.7  0.00000
362.8  0.00000
362.9  0.00000
363.0  0.00000
363.1  0.00000
363.2  0.00000
363.3  0.00000
363.4  0.00000
363.5  0.00000
363.6  0.00000
363.7  0.00000
363.8  0.00000
363.9  0.00000
364.0  0.00000
364.1  0.00000
364.2  0.00000
364.3  0.00000
364.4  0.00000
364.5  0.00000
364.6  0.00000
364.7  0.00000
364.8  0.00000
364.9  0.00000
365.0  0.00000
365.1  0.00000
365.2  0.00000
365.3  0.00000
365.4  0.00000
365.5  0.00000
365.6  0.00000
365.7  0.00000
365.8  0.00000
365.9  0.00000
366.0  0.00000
366.1  0.00000
366.2  0.00000
366.3  0.00000
366.4  0.00000
366.5  0.00000
366.6  0.00000
366.7  0.00000
366.8  0.00000
366.9  0.00000
367.0  0.00000
367.1  0.00000
367.2  0.00000
367.3  0.00000
367.4  0.00000
367.5  0.00000
367.6  0.00000
367.7  0.00000
367.8  0.00000
367.9  0.00000
368.0  0.00000
368.1  0.00000
368.2  0.00000
368.3  0.00000
368.4  0.00000
368.5  0.00000
368.6  0.00000
368.7  0.00000
368.8  0.00000
368.9  0.00000
369.0  0.00000
369.1  0.00000
369.2  0.00000
369.3  0.00000
369.4  0.00000
369.5  0.00000
369.6  0.00000
369.7  0.00000
369.8  0.00000
369.9  0.00000
370.0  0.00000
370.1  0.00000
370.2  0.00000
370.3  0.00000
370.4  0.00000
370.5  0.00000
370.6  0.00000
370.7  0.00000
370.8  0.00000
370.9  0.00000
371.0  0.00000
371.1  0.00000
371.2  0.00000
371.3  0.00000
371.4  0.00000
371.5  0.00000
371.6  0.00000
371.7  0.00000
371.8  0.00000
371.9  0.00000
372.0  0.00000
372.1  0.00000
372.2  0.00000
372.3  0.00000
372.4  0.00000
372.5  0.00000
372.6  0.00000
372.7  0.00000
372.8  0.00000
372.9  0.00000
373.0  0.00000
373.1  0.00000
373.2  0.00000
373.3  0.00000
373.4  0.00000
373.5  0.00000
373.6  0.00000
373.7  0.00000
373.8  0.00000
373.9  0.00000
374.0  0.00000
374.1  0.00000
374.2  0.00000
374.3  0.00000
374.4  0.00000
374.5  0.00000
374.6  0.00000
374.7  0.00000
374.8  0.00000
374.9  0.00000
375.0  0.00000
375.1  0.00000
375.2  0.00000
375.3  0.00000
375.4  0.00000
375.5  0.00000
375.6  0.00000
375.7  0.00000
375.8  0.00000
375.9  0.00000
376.0  0.00000
376.1  0.00000
376.2  0.00000
376.3  0.00000
376.4  0.00000
376.5  0.00000
376.6  0.00000
376.7  0.00000
376.8  0.00000
376.9  0.00000
377.0  0.00000
377.1  0.00000
377.2  0.00000
377.3  0.00000
377.4  0.00000
377.5  0.00000
377.6  0.00000
377.7  0.00000
377.8  0.00000
377.9  0.00000
378.0  0.00000
378.1  0.00000
378.2  0.00000
378.3  0.00000
378.4  0.00000
378.5  0.00000
378.6  0.00000
378.7  0.00000
378.8  0.00000
378.9  0.00000
379.0  0.00000
379.1  0.00000
379.2  0.00000
379.3  0.00000
379.4  0.00000
379.5  0.00000
379.6  0.00000
379.7  0.00000
379.8  0.00000
379.9  0.00000
380.0  0.00000
380.1  0.00000
380.2  0.00000
380.3  0.00000
380.4  0.00000
380.5  0.00000
380.6  0.00000
380.7  0.00000
380.8  0.00000
380.9  0.00000
381.0  0.00000
381.1  0.00000
381.2  0.00000
381.3  0.00000
381.4  0.00000
381.5  0.00000
381.6  0.00000
381.7  0.00000
381.8  0.00000
381.9  0.00000
382.0  0.00000
382.1  0.00000
382.2  0.00000
382.3  0.00000
382.4  0.00000
382.5  0.00000
382.6  0.00000
382.7  0.00000
382.8  0.00000
382.9  0.00000
383.0  0.00000
383.1  0.00000
383.2  0.00000
383.3  0.00000
383.4  0.00000
383.5  0.00000
383.6  0.00000
383.7  0.00000
383.8  0.00000
383.9  0.00000
384.0  0.00000
384.1  0.00000
384.2  0.00000
384.3  0.00000
384.4  0.00000
384.5  0.00000
384.6  0.00000
384.7  0.00000
384.8  0.00000
384.9  0.00000
385.0  0.00000
385.1  0.00000
385.2  0.00000
385.3  0.00000
385.4  0.00000
385.5  0.00000
385.6  0.00000
385.7  0.00000
385.8  0.00000
385.9  0.00000
386.0  0.00000
386.1  0.00000
386.2  0.00000
386.3  0.00000
386.4  0.00000
386.5  0.00000
386.6  0.00000
386.7  0.00000
386.8  0.00000
386.9  0.00000
387.0  0.00000
387.1  0.00000
387.2  0.00000
387.3  0.00000
387.4  0.00000
387.5  0.00000
387.6  0.00000
387.7  0.00000
387.8  0.00000
387.9  0.00000
388.0  0.00000
388.1  0.00000
388.2  0.00000
388.3  0.00000
388.4  0.00000
388.5  0.00000
388.6  0.00000
388.7  0.00000
388.8  0.00000
388.9  0.00000
389.0  0.00000
389.1  0.00000
389.2  0.00000
389.3  0.00000
389.4  0.00000
389.5  0.00000
389.6  0.00000
389.7  0.00000
389.8  0.00000
389.9  0.00000
390.0  0.00000
390.1  0.00000
390.2  0.00000
390.3  0.00000
390.4  0.00000
390.5  0.00000
390.6  0.00000
390.7  0.00000
390.8  0.00000
390.9  0.00000
391.0  0.00000
391.1  0.00000
391.2  0.00000
391.3  0.00000
391.4  0.00000
391.5  0.00000
391.6  0.00000
391.7  0.00000
391.8  0.00000
391.9  0.00000
392.0  0.00000
392.1  0.00000
392.2  0.00000
392.3  0.00000
392.4  0.00000
392.5  0.00000
392.6  0.00000
392.7  0.00000
392.8  0.00000
392.9  0.00000
393.0  0.00000
393.1  0.00000
393.2  0.00000
393.3  0.00000
393.4  0.00000
393.5  0.00000
393.6  0.00000
393.7  0.00000
393.8  0.00000
393.9  0.00000
394.0  0.00000
394.1  0.00000
394.2  0.00000
394.3  0.00000
394.4  0.00000
394.5  0.00000
394.6  0.00000
394.7  0.00000
394.8  0.00000
394.9  0.00000
395.0  0.00000
395.1  0.00000
395.2  0.00000
395.3  0.00000
395.4  0.00000
395.5  0.00000
395.6  0.00000
395.7  0.00000
395.8  0.00000
395.9  0.00000
396.0  0.00000
396.1  0.00000
396.2  0.00000
396.3  0.00000
396.4  0.00000
396.5  0.00000
396.6  0.00000
396.7  0.00000
396.8  0.00000
396.9  0.00000
397.0  0.00000
397.1  0.00000
397.2  0.00000
397.3  0.00000
397.4  0.00000
397.5  0.00000
397.6  0.00000
397.7  0.00000
397.8  0.00000
397.9  0.00000
398.0  0.00000
398.1  0.00000
398.2  0.00000
398.3  0.00000
398.4  0.00000
398.5  0.00000
398.6  0.00000
398.7  0.00000
398.8  0.00000
398.9  0.00000
399.0  0.00000
399.1  0.00000
399.2  0.00000
399.3  0.00000
399.4  0.00000
399.5  0.00000
399.6  0.00000
399.7  0.00000
399.8  0.00000
399.9  0.00000
400.0  0.00000
400.1  0.00000
400.2  0.00000
400.3  0.00000
400.4  0.00000
400.5  0.00000
400.6  0.00000
400.7  0.00000
400.8  0.00000
400.9  0.00000
401.0  0.00000
401.1  0.00000
401.2  0.00000
401.3  0.00000
401.4  0.00000
401.5  0.00000
401.6  0.00000
401.7  0.00000
401.8  0.00000
401.9  0.00000
402.0  0.00000
402.1  0.00000
402.2  0.00000
402.3  0.00000
402.4  0.00000
402.5  0.00000
402.6  0.00000
402.7  0.00000
402.8  0.00000
402.9  0.00000
403.0  0.00000
403.1  0.00000
403.2  0.00000
403.3  0.00000
403.4  0.00000
403.5  0.00000
403.6  0.00000
403.7  0.00000
403.8  0.00000
403.9  0.00000
404.0  0.00000
404.1  0.00000
404.2  0.00000
404.3  0.00000
404.4  0.00000
404.5  0.00000
404.6  0.00000
404.7  0.00000
404.8  0.00000
404.9  0.00000
405.0  0.00000
405.1  0.00000
405.2  0.00000
405.3  0.00000
405.4  0.00000
405.5  0.00000
405.6  0.00000
405.7  0.00000
405.8  0.00000
405.9  0.00000
406.0  0.00000
406.1  0.00000
406.2  0.00000
406.3  0.00000
406.4  0.00000
406.5  0.00000
406.6  0.00000
406.7  0.00000
406.8  0.00000
406.9  0.00000
407.0  0.00000
407.1  0.00000
407.2  0.00000
407.3  0.00000
407.4  0.00000
407.5  0.00000
407.6  0.00000
407.7  0.00000
407.8  0.00000
407.9  0.00000
408.0  0.00000
408.1  0.00000
408.2  0.00000
408.3  0.00000
408.4  0.00000
408.5  0.00000
408.6  0.00000
408.7  0.00000
408.8  0.00000
408.9  0.00000
409.0  0.00000
409.1  0.00000
409.2  0.00000
409.3  0.00000
409.4  0.00000
409.5  0.00000
409.6  0.00000
409.7  0.00000
409.8  0.00000
409.9  0.00000
410.0  0.00000
410.1  0.00000
410.2  0.00000
410.3  0.00000
410.4  0.00000
410.5  0.00000
410.6  0.00000
410.7  0.00000
410.8  0.00000
410.9  0.00000
411.0  0.00000
411.1  0.00000
411.2  0.00000
411.3  0.00000
411.4  0.00000
411.5  0.00000
411.6  0.00000
411.7  0.00000
411.8  0.00000
411.9  0.00000
412.0  0.00000
412.1  0.00000
412.2  0.00000
412.3  0.00000
412.4  0.00000
412.5  0.00000
412.6  0.00000
412.7  0.00000
412.8  0.00000
412.9  0.00000
413.0  0.00000
413.1  0.00000
413.2  0.00000
413.3  0.00000
413.4  0.00000
413.5  0.00000
413.6  0.00000
413.7  0.00000
413.8  0.00000
413.9  0.00000
414.0  0.00000
414.1  0.00000
414.2  0.00000
414.3  0.00000
414.4  0.00000
414.5  0.00000
414.6  0.00000
414.7  0.00000
414.8  0.00000
414.9  0.00000
415.0  0.00000
415.1  0.00000
415.2  0.00000
415.3  0.00000
415.4  0.00000
415.5  0.00000
415.6  0.00000
415.7  0.00000
415.8  0.00000
415.9  0.00000
416.0  0.00000
416.1  0.00000
416.2  0.00000
416.3  0.00000
416.4  0.00000
416.5  0.00000
416.6  0.00000
416.7  0.00000
416.8  0.00000
416.9  0.00000
417.0  0.00000
417.1  0.00000
417.2  0.00000
417.3  0.00000
417.4  0.00000
417.5  0.00000
417.6  0.00000
417.7  0.00000
417.8  0.00000
417.9  0.00000
418.0  0.00000
418.1  0.00000
418.2  0.00000
418.3  0.00000
418.4  0.00000
418.5  0.00000
418.6  0.00000
418.7  0.00000
418.8  0.00000
418.9  0.00000
419.0  0.00000
419.1  0.00000
419.2  0.00000
419.3  0.00000
419.4  0.00000
419.5  0.00000
419.6  0.00000
419.7  0.00000
419.8  0.00000
419.9  0.00000
420.0  0.00000
420.1  0.00000
420.2  0.00000
420.3  0.00000
420.4  0.00000
420.5  0.00000
420.6  0.00000
420.7  0.00000
420.8  0.00000
420.9  0.00000
421.0  0.00000
421.1  0.00000
421.2  0.00000
421.3  0.00000
421.4  0.00000
421.5  0.00000
421.6  0.00000
421.7  0.00000
421.8  0.00000
421.9  0.00000
422.0  0.00000
422.1  0.00000
422.2  0.00000
422.3  0.00000
422.4  0.00000
422.5  0.00000
422.6  0.00000
422.7  0.00000
422.8  0.00000
422.9  0.00000
423.0  0.00000
423.1  0.00000
423.2  0.00000
423.3  0.00000
423.4  0.00000
423.5  0.00000
423.6  0.00000
423.7  0.00000
423.8  0.00000
423.9  0.00000
424.0  0.00000
424.1  0.00000
424.2  0.00000
424.3  0.00000
424.4  0.00000
424.5  0.00000
424.6  0.00000
424.7  0.00000
424.8  0.00000
424.9  0.00000
425.0  0.00000
425.1  0.00000
425.2  0.00000
425.3  0.00000
425.4  0.00000
425.5  0.00000
425.6  0.00000
425.7  0.00000
425.8  0.00000
425.9  0.00000
426.0  0.00000
426.1  0.00000
426.2  0.00000
426.3  0.00000
426.4  0.00000
426.5  0.00000
426.6  0.00000
426.7  0.00000
426.8  0.00000
426.9  0.00000
427.0  0.00000
427.1  0.00000
427.2  0.00000
427.3  0.00000
427.4  0.00000
427.5  0.00000
427.6  0.00000
427.7  0.00000
427.8  0.00000
427.9  0.00000
428.0  0.00000
428.1  0.00000
428.2  0.00000
428.3  0.00000
428.4  0.00000
428.5  0.00000
428.6  0.00000
428.7  0.00000
428.8  0.00000
428.9  0.00000
429.0  0.00000
429.1  0.00000
429.2  0.00000
429.3  0.00000
429.4  0.00000
429.5  0.00000
429.6  0.00000
429.7  0.00000
429.8  0.00000
429.9  0.00000
430.0  0.00000
430.1  0.00000
430.2  0.00000
430.3  0.00000
430.4  0.00000
430.5  0.00000
430.6  0.00000
430.7  0.00000
430.8  0.00000
430.9  0.00000
431.0  0.00000
431.1  0.00000
431.2  0.00000
431.3  0.00000
431.4  0.00000
431.5  0.00000
431.6  0.00000
431.7  0.00000
431.8  0.00000
431.9  0.00000
432.0  0.00000
432.1  0.00000
432.2  0.00000
432.3  0.00000
432.4  0.00000
432.5  0.00000
432.6  0.00000
432.7  0.00000
432.8  0.00000
432.9  0.00000
433.0  0.00000
433.1  0.00000
433.2  0.00000
433.3  0.00000
433.4  0.00000
433.5  0.00000
433.6  0.00000
433.7  0.00000
433.8  0.00000
433.9  0.00000
434.0  0.00000
434.1  0.00000
434.2  0.00000
434.3  0.00000
434.4  0.00000
434.5  0.00000
434.6  0.00000
434.7  0.00000
434.8  0.00000
434.9  0.00000
435.0  0.00000
435.1  0.00000
435.2  0.00000
435.3  0.00001
435.4  0.00001
435.5  0.00001
435.6  0.00000
435.7  0.00000
435.8  0.00000
435.9  0.00000
436.0  0.00000
436.1  0.00000
436.2  0.00000
436.3  0.00000
436.4  0.00000
436.5  0.00000
436.6  0.00000
436.7  0.00000
436.8  0.00000
436.9  0.00000
437.0  0.00000
437.1  0.00000
437.2  0.00000
437.3  0.00000
437.4  0.00000
437.5  0.00000
437.6  0.00000
437.7  0.00000
437.8  0.00000
437.9  0.00000
438.0  0.00000
438.1  0.00000
438.2  0.00000
438.3  0.00000
438.4  0.00000
438.5  0.00000
438.6  0.00000
438.7  0.00000
438.8  0.00000
438.9  0.00000
439.0  0.00000
439.1  0.00000
439.2  0.00000
439.3  0.00000
439.4  0.00000
439.5  0.00000
439.6  0.00000
439.7  0.00000
439.8  0.00000
439.9  0.00000
440.0  0.00000
440.1  0.00000
440.2  0.00000
440.3  0.00000
440.4  0.00000
440.5  0.00000
440.6  0.00000
440.7  0.00000
440.8  0.00000
440.9  0.00000
441.0  0.00000
441.1  0.00000
441.2  0.00000
441.3  0.00000
441.4  0.00000
441.5  0.00000
441.6  0.00000
441.7  0.00000
441.8  0.00000
441.9  0.00000
442.0  0.00000
442.1  0.00000
442.2  0.00000
442.3  0.00000
442.4  0.00000
442.5  0.00000
442.6  0.00000
442.7  0.00000
442.8  0.00000
442.9  0.00000
443.0  0.00000
443.1  0.00000
443.2  0.00000
443.3  0.00000
443.4  0.00000
443.5  0.00000
443.6  0.00000
443.7  0.00000
443.8  0.00000
443.9  0.00000
444.0  0.00000
444.1  0.00000
444.2  0.00000
444.3  0.00001
444.4  0.00001
444.5  0.00001
444.6  0.00001
444.7  0.00001
444.8  0.00001
444.9  0.00000
445.0  0.00000
445.1  0.00000
445.2  0.00000
445.3  0.00000
445.4  0.00000
445.5  0.00000
445.6  0.00000
445.7  0.00000
445.8  0.00000
445.9  0.00000
446.0  0.00000
446.1  0.00000
446.2  0.00000
446.3  0.00000
446.4  0.00000
446.5  0.00000
446.6  0.00000
446.7  0.00000
446.8  0.00000
446.9  0.00000
447.0  0.00000
447.1  0.00000
447.2  0.00000
447.3  0.00000
447.4  0.00000
447.5  0.00000
447.6  0.00000
447.7  0.00000
447.8  0.00000
447.9  0.00000
448.0  0.00000
448.1  0.00000
448.2  0.00000
448.3  0.00000
448.4  0.00000
448.5  0.00000
448.6  0.00000
448.7  0.00000
448.8  0.00000
448.9  0.00000
449.0  0.00001
449.1  0.00001
449.2  0.00001
449.3  0.00002
449.4  0.00002
449.5  0.00002
449.6  0.00002
449.7  0.00002
449.8  0.00001
449.9  0.00001
450.0  0.00001
450.1  0.00001
450.2  0.00000
450.3  0.00000
450.4  0.00000
450.5  0.00000
450.6  0.00000
450.7  0.00000
450.8  0.00000
450.9  0.00000
451.0  0.00000
451.1  0.00000
451.2  0.00000
451.3  0.00000
451.4  0.00000
451.5  0.00000
451.6  0.00000
451.7  0.00000
451.8  0.00000
451.9  0.00000
452.0  0.00000
452.1  0.00000
452.2  0.00000
452.3  0.00000
452.4  0.00000
452.5  0.00000
452.6  0.00000
452.7  0.00000
452.8  0.00000
452.9  0.00000
453.0  0.00000
453.1  0.00000
453.2  0.00000
453.3  0.00000
453.4  0.00000
453.5  0.00000
453.6  0.00000
453.7  0.00000
453.8  0.00000
453.9  0.00000
454.0  0.00000
454.1  0.00000
454.2  0.00000
454.3  0.00000
454.4  0.00000
454.5  0.00000
454.6  0.00000
454.7  0.00000
454.8  0.00000
454.9  0.00000
455.0  0.00000
455.1  0.00000
455.2  0.00000
455.3  0.00000
455.4  0.00000
455.5  0.00000
455.6  0.00000
455.7  0.00000
455.8  0.00000
455.9  0.00000
456.0  0.00000
456.1  0.00000
456.2  0.00000
456.3  0.00000
456.4  0.00000
456.5  0.00000
456.6  0.00000
456.7  0.00000
456.8  0.00000
456.9  0.00000
457.0  0.00000
457.1  0.00000
457.2  0.00000
457.3  0.00000
457.4  0.00000
457.5  0.00000
457.6  0.00000
457.7  0.00000
457.8  0.00000
457.9  0.00000
458.0  0.00000
458.1  0.00000
458.2  0.00000
458.3  0.00000
458.4  0.00000
458.5  0.00000
458.6  0.00000
458.7  0.00000
458.8  0.00000
458.9  0.00000
459.0  0.00000
459.1  0.00000
459.2  0.00000
459.3  0.00000
459.4  0.00000
459.5  0.00000
459.6  0.00000
459.7  0.00000
459.8  0.00000
459.9  0.00001
460.0  0.00001
460.1  0.00001
460.2  0.00001
460.3  0.00001
460.4  0.00002
460.5  0.00002
460.6  0.00003
460.7  0.00004
460.8  0.00005
460.9  0.00006
461.0  0.00006
461.1  0.00004
461.2  0.00003
461.3  0.00002
461.4  0.00002
461.5  0.00001
461.6  0.00001
461.7  0.00001
461.8  0.00001
461.9  0.00001
462.0  0.00000
462.1  0.00000
462.2  0.00000
462.3  0.00000
462.4  0.00000
462.5  0.00000
462.6  0.00000
462.7  0.00000
462.8  0.00000
462.9  0.00000
463.0  0.00000
463.1  0.00000
463.2  0.00000
463.3  0.00000
463.4  0.00000
463.5  0.00000
463.6  0.00000
463.7  0.00000
463.8  0.00000
463.9  0.00000
464.0  0.00000
464.1  0.00000
464.2  0.00000
464.3  0.00000
464.4  0.00000
464.5  0.00000
464.6  0.00000
464.7  0.00000
464.8  0.00000
464.9  0.00000
465.0  0.00000
465.1  0.00000
465.2  0.00000
465.3  0.00000
465.4  0.00000
465.5  0.00000
465.6  0.00000
465.7  0.00000
465.8  0.00000
465.9  0.00000
466.0  0.00000
466.1  0.00000
466.2  0.00000
466.3  0.00000
466.4  0.00000
466.5  0.00000
466.6  0.00000
466.7  0.00000
466.8  0.00000
466.9  0.00000
467.0  0.00000
467.1  0.00000
467.2  0.00000
467.3  0.00000
467.4  0.00000
467.5  0.00000
467.6  0.00000
467.7  0.00000
467.8  0.00000
467.9  0.00000
468.0  0.00000
468.1  0.00000
468.2  0.00000
468.3  0.00000
468.4  0.00000
468.5  0.00000
468.6  0.00000
468.7  0.00000
468.8  0.00000
468.9  0.00000
469.0  0.00000
469.1  0.00000
469.2  0.00000
469.3  0.00000
469.4  0.00000
469.5  0.00000
469.6  0.00000
469.7  0.00000
469.8  0.00000
469.9  0.00000
470.0  0.00000
470.1  0.00000
470.2  0.00000
470.3  0.00000
470.4  0.00000
470.5  0.00000
470.6  0.00000
470.7  0.00000
470.8  0.00001
470.9  0.00001
471.0  0.00001
471.1  0.00001
471.2  0.00001
471.3  0.00001
471.4  0.00001
471.5  0.00001
471.6  0.00002
471.7  0.00003
471.8  0.00004
471.9  0.00006
472.0  0.00009
472.1  0.00015
472.2  0.00022
472.3  0.00023
472.4  0.00017
472.5  0.00010
472.6  0.00006
472.7  0.00004
472.8  0.00003
472.9  0.00002
473.0  0.00002
473.1  0.00001
473.2  0.00001
473.3  0.00001
473.4  0.00001
473.5  0.00001
473.6  0.00001
473.7  0.00000
473.8  0.00000
473.9  0.00000
474.0  0.00000
474.1  0.00000
474.2  0.00000
474.3  0.00000
474.4  0.00000
474.5  0.00000
474.6  0.00000
474.7  0.00000
474.8  0.00000
474.9  0.00000
475.0  0.00000
475.1  0.00000
475.2  0.00000
475.3  0.00000
475.4  0.00000
475.5  0.00000
475.6  0.00000
475.7  0.00000
475.8  0.00000
475.9  0.00000
476.0  0.00000
476.1  0.00000
476.2  0.00000
476.3  0.00000
476.4  0.00000
476.5  0.00000
476.6  0.00000
476.7  0.00000
476.8  0.00000
476.9  0.00000
477.0  0.00000
477.1  0.00000
477.2  0.00000
477.3  0.00000
477.4  0.00000
477.5  0.00000
477.6  0.00000
477.7  0.00000
477.8  0.00000
477.9  0.00000
478.0  0.00000
478.1  0.00000
478.2  0.00000
478.3  0.00000
478.4  0.00001
478.5  0.00001
478.6  0.00001
478.7  0.00001
478.8  0.00001
478.9  0.00001
479.0  0.00001
479.1  0.00001
479.2  0.00001
479.3  0.00001
479.4  0.00001
479.5  0.00001
479.6  0.00001
479.7  0.00001
479.8  0.00001
479.9  0.00001
480.0  0.00001
480.1  0.00001
480.2  0.00001
480.3  0.00001
480.4  0.00001
480.5  0.00002
480.6  0.00002
480.7  0.00002
480.8  0.00002
480.9  0.00003
481.0  0.00003
481.1  0.00004
481.2  0.00006
481.3  0.00009
481.4  0.00015
481.5  0.00032
481.6  0.00053
481.7  0.00055
481.8  0.00044
481.9  0.00018
482.0  0.00008
482.1  0.00004
482.2  0.00003
482.3  0.00002
482.4  0.00001
482.5  0.00001
482.6  0.00001
482.7  0.00001
482.8  0.00000
482.9  0.00000
483.0  0.00000
483.1  0.00000
483.2  0.00000
483.3  0.00000
483.4  0.00000
483.5  0.00000
483.6  0.00000
483.7  0.00000
483.8  0.00000
483.9  0.00000
484.0  0.00000
484.1  0.00000
484.2  0.00000
484.3  0.00000
484.4  0.00000
484.5  0.00000
484.6  0.00000
484.7  0.00000
484.8  0.00000
484.9  0.00000
485.0  0.00000
485.1  0.00000
485.2  0.00000
485.3  0.00000
485.4  0.00000
485.5  0.00000
485.6  0.00000
485.7  0.00000
485.8  0.00000
485.9  0.00000
486.0  0.00000
486.1  0.00000
486.2  0.00000
486.3  0.00000
486.4  0.00000
486.5  0.00000
486.6  0.00000
486.7  0.00000
486.8  0.00000
486.9  0.00000
487.0  0.00000
487.1  0.00000
487.2  0.00000
487.3  0.00000
487.4  0.00000
487.5  0.00000
487.6  0.00000
487.7  0.00000
487.8  0.00000
487.9  0.00000
488.0  0.00000
488.1  0.00000
488.2  0.00000
488.3  0.00000
488.4  0.00000
488.5  0.00000
488.6  0.00000
488.7  0.00000
488.8  0.00000
488.9  0.00000
489.0  0.00000
489.1  0.00000
489.2  0.00000
489.3  0.00000
489.4  0.00000
489.5  0.00000
489.6  0.00000
489.7  0.00000
489.8  0.00000
489.9  0.00000
490.0  0.00000
490.1  0.00000
490.2  0.00000
490.3  0.00000
490.4  0.00000
490.5  0.00000
490.6  0.00000
490.7  0.00000
490.8  0.00000
490.9  0.00000
491.0  0.00000
491.1  0.00000
491.2  0.00000
491.3  0.00000
491.4  0.00000
491.5  0.00000
491.6  0.00000
491.7  0.00000
491.8  0.00000
491.9  0.00000
492.0  0.00000
492.1  0.00000
492.2  0.00000
492.3  0.00000
492.4  0.00000
492.5  0.00000
492.6  0.00000
492.7  0.00000
492.8  0.00000
492.9  0.00000
493.0  0.00000
493.1  0.00000
493.2  0.00000
493.3  0.00000
493.4  0.00000
493.5  0.00000
493.6  0.00000
493.7  0.00000
493.8  0.00000
493.9  0.00000
494.0  0.00000
494.1  0.00000
494.2  0.00000
494.3  0.00000
494.4  0.00000
494.5  0.00000
494.6  0.00000
494.7  0.00000
494.8  0.00000
494.9  0.00000
495.0  0.00000
495.1  0.00000
495.2  0.00000
495.3  0.00000
495.4  0.00000
495.5  0.00000
495.6  0.00000
495.7  0.00000
495.8  0.00000
495.9  0.00000
496.0  0.00000
496.1  0.00000
496.2  0.00000
496.3  0.00000
496.4  0.00000
496.5  0.00000
496.6  0.00000
496.7  0.00000
496.8  0.00000
496.9  0.00000
497.0  0.00000
497.1  0.00000
497.2  0.00000
497.3  0.00000
497.4  0.00000
497.5  0.00000
497.6  0.00000
497.7  0.00000
497.8  0.00000
497.9  0.00000
498.0  0.00000
498.1  0.00000
498.2  0.00000
498.3  0.00000
498.4  0.00000
498.5  0.00000
498.6  0.00000
498.7  0.00000
498.8  0.00000
498.9  0.00000
499.0  0.00000
499.1  0.00000
499.2  0.00000
499.3  0.00000
499.4  0.00000
499.5  0.00000
499.6  0.00000
499.7  0.00000
499.8  0.00000
499.9  0.00000
500.0  0.00000
500.1  0.00000
500.2  0.00000
500.3  0.00000
500.4  0.00000
500.5  0.00000
500.6  0.00000
500.7  0.00000
500.8  0.00000
500.9  0.00000
501.0  0.00000
501.1  0.00000
501.2  0.00000
501.3  0.00000
501.4  0.00000
501.5  0.00000
501.6  0.00000
501.7  0.00000
501.8  0.00000
501.9  0.00000
502.0  0.00000
502.1  0.00000
502.2  0.00000
502.3  0.00000
502.4  0.00000
502.5  0.00000
502.6  0.00000
502.7  0.00000
502.8  0.00000
502.9  0.00000
503.0  0.00000
503.1  0.00000
503.2  0.00000
503.3  0.00000
503.4  0.00000
503.5  0.00000
503.6  0.00000
503.7  0.00000
503.8  0.00000
503.9  0.00000
504.0  0.00000
504.1  0.00000
504.2  0.00000
504.3  0.00000
504.4  0.00000
504.5  0.00000
504.6  0.00000
504.7  0.00000
504.8  0.00000
504.9  0.00000
505.0  0.00000
505.1  0.00000
505.2  0.00000
505.3  0.00000
505.4  0.00000
505.5  0.00000
505.6  0.00000
505.7  0.00000
505.8  0.00000
505.9  0.00000
506.0  0.00000
506.1  0.00000
506.2  0.00000
506.3  0.00000
506.4  0.00000
506.5  0.00000
506.6  0.00000
506.7  0.00000
506.8  0.00000
506.9  0.00000
507.0  0.00000
507.1  0.00000
507.2  0.00000
507.3  0.00000
507.4  0.00000
507.5  0.00000
507.6  0.00000
507.7  0.00000
507.8  0.00000
507.9  0.00001
508.0  0.00001
508.1  0.00001
508.2  0.00001
508.3  0.00001
508.4  0.00001
508.5  0.00001
508.6  0.00002
508.7  0.00002
508.8  0.00002
508.9  0.00003
509.0  0.00004
509.1  0.00006
509.2  0.00008
509.3  0.00011
509.4  0.00013
509.5  0.00014
509.6  0.00014
509.7  0.00012
509.8  0.00010
509.9  0.00007
510.0  0.00005
510.1  0.00004
510.2  0.00003
510.3  0.00003
510.4  0.00002
510.5  0.00002
510.6  0.00002
510.7  0.00001
510.8  0.00001
510.9  0.00001
511.0  0.00001
511.1  0.00001
511.2  0.00001
511.3  0.00001
511.4  0.00001
511.5  0.00001
511.6  0.00001
511.7  0.00001
511.8  0.00001
511.9  0.00001
512.0  0.00000
512.1  0.00000
512.2  0.00000
512.3  0.00000
512.4  0.00000
512.5  0.00000
512.6  0.00000
512.7  0.00000
512.8  0.00000
512.9  0.00000
513.0  0.00000
513.1  0.00000
513.2  0.00000
513.3  0.00000
513.4  0.00000
513.5  0.00000
513.6  0.00000
513.7  0.00000
513.8  0.00000
513.9  0.00000
514.0  0.00000
514.1  0.00000
514.2  0.00000
514.3  0.00000
514.4  0.00000
514.5  0.00000
514.6  0.00000
514.7  0.00000
514.8  0.00000
514.9  0.00001
515.0  0.00001
515.1  0.00001
515.2  0.00001
515.3  0.00001
515.4  0.00001
515.5  0.00001
515.6  0.00001
515.7  0.00001
515.8  0.00001
515.9  0.00001
516.0  0.00001
516.1  0.00001
516.2  0.00001
516.3  0.00001
516.4  0.00001
516.5  0.00001
516.6  0.00001
516.7  0.00001
516.8  0.00001
516.9  0.00001
517.0  0.00001
517.1  0.00001
517.2  0.00001
517.3  0.00001
517.4  0.00001
517.5  0.00001
517.6  0.00001
517.7  0.00001
517.8  0.00001
517.9  0.00001
518.0  0.00001
518.1  0.00001
518.2  0.00001
518.3  0.00001
518.4  0.00001
518.5  0.00001
518.6  0.00002
518.7  0.00002
518.8  0.00002
518.9  0.00002
519.0  0.00002
519.1  0.00002
519.2  0.00002
519.3  0.00002
519.4  0.00002
519.5  0.00002
519.6  0.00002
519.7  0.00002
519.8  0.00002
519.9  0.00002
520.0  0.00002
520.1  0.00002
520.2  0.00002
520.3  0.00002
520.4  0.00002
520.5  0.00002
520.6  0.00002
520.7  0.00002
520.8  0.00002
520.9  0.00002
521.0  0.00001
521.1  0.00001
521.2  0.00001
521.3  0.00001
521.4  0.00001
521.5  0.00001
521.6  0.00001
521.7  0.00001
521.8  0.00001
521.9  0.00001
522.0  0.00001
522.1  0.00001
522.2  0.00001
522.3  0.00001
522.4  0.00001
522.5  0.00001
522.6  0.00000
522.7  0.00000
522.8  0.00000
522.9  0.00000
523.0  0.00000
523.1  0.00000
523.2  0.00000
523.3  0.00000
523.4  0.00000
523.5  0.00000
523.6  0.00000
523.7  0.00000
523.8  0.00000
523.9  0.00000
524.0  0.00000
524.1  0.00000
524.2  0.00000
524.3  0.00000
524.4  0.00000
524.5  0.00000
524.6  0.00000
524.7  0.00000
524.8  0.00000
524.9  0.00000
525.0  0.00000
525.1  0.00000
525.2  0.00000
525.3  0.00000
525.4  0.00000
525.5  0.00000
525.6  0.00000
525.7  0.00000
525.8  0.00000
525.9  0.00000
526.0  0.00000
526.1  0.00000
526.2  0.00000
526.3  0.00000
526.4  0.00000
526.5  0.00000
526.6  0.00000
526.7  0.00000
526.8  0.00000
526.9  0.00000
527.0  0.00000
527.1  0.00000
527.2  0.00000
527.3  0.00000
527.4  0.00000
527.5  0.00000
527.6  0.00000
527.7  0.00000
527.8  0.00000
527.9  0.00000
528.0  0.00000
528.1  0.00000
528.2  0.00000
528.3  0.00000
528.4  0.00000
528.5  0.00000
528.6  0.00000
528.7  0.00000
528.8  0.00000
528.9  0.00000
529.0  0.00000
529.1  0.00000
529.2  0.00000
529.3  0.00000
529.4  0.00000
529.5  0.00000
529.6  0.00000
529.7  0.00000
529.8  0.00000
529.9  0.00000
530.0  0.00000
530.1  0.00000
530.2  0.00000
530.3  0.00000
530.4  0.00000
530.5  0.00000
530.6  0.00000
530.7  0.00000
530.8  0.00000
530.9  0.00000
531.0  0.00000
531.1  0.00000
531.2  0.00000
531.3  0.00000
531.4  0.00000
531.5  0.00000
531.6  0.00000
531.7  0.00000
531.8  0.00000
531.9  0.00000
532.0  0.00000
532.1  0.00000
532.2  0.00000
532.3  0.00000
532.4  0.00000
532.5  0.00000
532.6  0.00000
532.7  0.00000
532.8  0.00000
532.9  0.00000
533.0  0.00000
533.1  0.00000
533.2  0.00000
533.3  0.00000
533.4  0.00000
533.5  0.00000
533.6  0.00000
533.7  0.00000
533.8  0.00000
533.9  0.00000
534.0  0.00000
534.1  0.00000
534.2  0.00000
534.3  0.00000
534.4  0.00000
534.5  0.00000
534.6  0.00000
534.7  0.00000
534.8  0.00000
534.9  0.00000
535.0  0.00000
535.1  0.00000
535.2  0.00000
535.3  0.00000
535.4  0.00000
535.5  0.00000
535.6  0.00000
535.7  0.00000
535.8  0.00000
535.9  0.00000
536.0  0.00000
536.1  0.00000
536.2  0.00000
536.3  0.00000
536.4  0.00000
536.5  0.00000
536.6  0.00000
536.7  0.00000
536.8  0.00000
536.9  0.00000
537.0  0.00000
537.1  0.00000
537.2  0.00000
537.3  0.00000
537.4  0.00000
537.5  0.00000
537.6  0.00000
537.7  0.00000
537.8  0.00000
537.9  0.00000
538.0  0.00000
538.1  0.00000
538.2  0.00000
538.3  0.00000
538.4  0.00000
538.5  0.00000
538.6  0.00000
538.7  0.00000
538.8  0.00000
538.9  0.00000
539.0  0.00000
539.1  0.00000
539.2  0.00000
539.3  0.00000
539.4  0.00000
539.5  0.00000
539.6  0.00000
539.7  0.00000
539.8  0.00000
539.9  0.00000
540.0  0.00000
540.1  0.00000
540.2  0.00000
540.3  0.00000
540.4  0.00000
540.5  0.00000
540.6  0.00000
540.7  0.00000
540.8  0.00000
540.9  0.00000
541.0  0.00000
541.1  0.00000
541.2  0.00000
541.3  0.00000
541.4  0.00000
541.5  0.00000
541.6  0.00000
541.7  0.00000
541.8  0.00000
541.9  0.00000
542.0  0.00000
542.1  0.00000
542.2  0.00000
542.3  0.00000
542.4  0.00000
542.5  0.00000
542.6  0.00000
542.7  0.00000
542.8  0.00000
542.9  0.00000
543.0  0.00000
543.1  0.00000
543.2  0.00000
543.3  0.00000
543.4  0.00000
543.5  0.00000
543.6  0.00000
543.7  0.00000
543.8  0.00000
543.9  0.00000
544.0  0.00000
544.1  0.00000
544.2  0.00000
544.3  0.00000
544.4  0.00000
544.5  0.00000
544.6  0.00000
544.7  0.00000
544.8  0.00000
544.9  0.00000
545.0  0.00000
545.1  0.00000
545.2  0.00000
545.3  0.00000
545.4  0.00000
545.5  0.00000
545.6  0.00000
545.7  0.00000
545.8  0.00000
545.9  0.00000
546.0  0.00000
546.1  0.00000
546.2  0.00000
546.3  0.00000
546.4  0.00000
546.5  0.00000
546.6  0.00000
546.7  0.00000
546.8  0.00000
546.9  0.00000
547.0  0.00000
547.1  0.00000
547.2  0.00000
547.3  0.00000
547.4  0.00000
547.5  0.00000
547.6  0.00000
547.7  0.00000
547.8  0.00000
547.9  0.00000
548.0  0.00000
548.1  0.00000
548.2  0.00000
548.3  0.00000
548.4  0.00000
548.5  0.00000
548.6  0.00000
548.7  0.00000
548.8  0.00000
548.9  0.00000
549.0  0.00000
549.1  0.00000
549.2  0.00000
549.3  0.00000
549.4  0.00000
549.5  0.00000
549.6  0.00000
549.7  0.00000
549.8  0.00000
549.9  0.00000
550.0  0.00000
550.1  0.00000
550.2  0.00000
550.3  0.00000
550.4  0.00000
550.5  0.00000
550.6  0.00000
550.7  0.00000
550.8  0.00000
550.9  0.00000
551.0  0.00000
551.1  0.00000
551.2  0.00000
551.3  0.00000
551.4  0.00000
551.5  0.00000
551.6  0.00000
551.7  0.00000
551.8  0.00000
551.9  0.00000
552.0  0.00000
552.1  0.00000
552.2  0.00000
552.3  0.00000
552.4  0.00000
552.5  0.00000
552.6  0.00000
552.7  0.00000
552.8  0.00000
552.9  0.00000
553.0  0.00000
553.1  0.00000
553.2  0.00000
553.3  0.00000
553.4  0.00000
553.5  0.00000
553.6  0.00000
553.7  0.00000
553.8  0.00000
553.9  0.00000
554.0  0.00000
554.1  0.00000
554.2  0.00000
554.3  0.00000
554.4  0.00000
554.5  0.00000
554.6  0.00000
554.7  0.00000
554.8  0.00000
554.9  0.00000
555.0  0.00000
555.1  0.00000
555.2  0.00000
555.3  0.00000
555.4  0.00000
555.5  0.00000
555.6  0.00000
555.7  0.00000
555.8  0.00000
555.9  0.00000
556.0  0.00000
556.1  0.00000
556.2  0.00000
556.3  0.00000
556.4  0.00000
556.5  0.00000
556.6  0.00000
556.7  0.00000
556.8  0.00000
556.9  0.00000
557.0  0.00000
557.1  0.00000
557.2  0.00000
557.3  0.00000
557.4  0.00000
557.5  0.00000
557.6  0.00000
557.7  0.00000
557.8  0.00000
557.9  0.00000
558.0  0.00000
558.1  0.00000
558.2  0.00000
558.3  0.00000
558.4  0.00000
558.5  0.00000
558.6  0.00000
558.7  0.00000
558.8  0.00000
558.9  0.00000
559.0  0.00000
559.1  0.00000
559.2  0.00000
559.3  0.00000
559.4  0.00001
559.5  0.00001
559.6  0.00001
559.7  0.00001
559.8  0.00001
559.9  0.00001
560.0  0.00001
560.1  0.00001
560.2  0.00001
560.3  0.00001
560.4  0.00001
560.5  0.00001
560.6  0.00001
560.7  0.00001
560.8  0.00001
560.9  0.00001
561.0  0.00001
561.1  0.00001
561.2  0.00001
561.3  0.00001
561.4  0.00001
561.5  0.00001
561.6  0.00001
561.7  0.00001
561.8  0.00001
561.9  0.00001
562.0  0.00001
562.1  0.00001
562.2  0.00001
562.3  0.00001
562.4  0.00001
562.5  0.00001
562.6  0.00001
562.7  0.00001
562.8  0.00001
562.9  0.00001
563.0  0.00001
563.1  0.00001
563.2  0.00001
563.3  0.00001
563.4  0.00001
563.5  0.00001
563.6  0.00001
563.7  0.00001
563.8  0.00001
563.9  0.00001
564.0  0.00001
564.1  0.00001
564.2  0.00001
564.3  0.00001
564.4  0.00001
564.5  0.00001
564.6  0.00001
564.7  0.00001
564.8  0.00001
564.9  0.00001
565.0  0.00001
565.1  0.00001
565.2  0.00001
565.3  0.00001
565.4  0.00001
565.5  0.00001
565.6  0.00001
565.7  0.00001
565.8  0.00001
565.9  0.00001
566.0  0.00001
566.1  0.00001
566.2  0.00001
566.3  0.00001
566.4  0.00001
566.5  0.00001
566.6  0.00001
566.7  0.00001
566.8  0.00001
566.9  0.00001
567.0  0.00001
567.1  0.00001
567.2  0.00001
567.3  0.00001
567.4  0.00001
567.5  0.00001
567.6  0.00001
567.7  0.00001
567.8  0.00001
567.9  0.00001
568.0  0.00001
568.1  0.00001
568.2  0.00001
568.3  0.00001
568.4  0.00001
568.5  0.00001
568.6  0.00001
568.7  0.00001
568.8  0.00001
568.9  0.00001
569.0  0.00001
569.1  0.00001
569.2  0.00001
569.3  0.00001
569.4  0.00001
569.5  0.00001
569.6  0.00001
569.7  0.00001
569.8  0.00001
569.9  0.00001
570.0  0.00001
570.1  0.00001
570.2  0.00001
570.3  0.00001
570.4  0.00001
570.5  0.00001
570.6  0.00001
570.7  0.00001
570.8  0.00001
570.9  0.00001
571.0  0.00001
571.1  0.00001
571.2  0.00001
571.3  0.00001
571.4  0.00001
571.5  0.00001
571.6  0.00001
571.7  0.00001
571.8  0.00001
571.9  0.00001
572.0  0.00001
572.1  0.00001
572.2  0.00001
572.3  0.00001
572.4  0.00001
572.5  0.00001
572.6  0.00001
572.7  0.00001
572.8  0.00001
572.9  0.00001
573.0  0.00001
573.1  0.00001
573.2  0.00001
573.3  0.00001
573.4  0.00001
573.5  0.00001
573.6  0.00001
573.7  0.00001
573.8  0.00001
573.9  0.00001
574.0  0.00001
574.1  0.00001
574.2  0.00001
574.3  0.00001
574.4  0.00001
574.5  0.00001
574.6  0.00001
574.7  0.00001
574.8  0.00001
574.9  0.00001
575.0  0.00001
575.1  0.00001
575.2  0.00001
575.3  0.00001
575.4  0.00001
575.5  0.00001
575.6  0.00001
575.7  0.00001
575.8  0.00001
575.9  0.00001
576.0  0.00001
576.1  0.00001
576.2  0.00001
576.3  0.00001
576.4  0.00001
576.5  0.00001
576.6  0.00001
576.7  0.00001
576.8  0.00001
576.9  0.00002
577.0  0.00002
577.1  0.00002
577.2  0.00002
577.3  0.00002
577.4  0.00002
577.5  0.00002
577.6  0.00002
577.7  0.00002
577.8  0.00002
577.9  0.00002
578.0  0.00002
578.1  0.00002
578.2  0.00002
578.3  0.00002
578.4  0.00002
578.5  0.00002
578.6  0.00002
578.7  0.00002
578.8  0.00002
578.9  0.00002
579.0  0.00002
579.1  0.00002
579.2  0.00002
579.3  0.00002
579.4  0.00002
579.5  0.00002
579.6  0.00002
579.7  0.00002
579.8  0.00002
579.9  0.00002
580.0  0.00002
580.1  0.00002
580.2  0.00002
580.3  0.00002
580.4  0.00002
580.5  0.00002
580.6  0.00002
580.7  0.00002
580.8  0.00002
580.9  0.00002
581.0  0.00002
581.1  0.00002
581.2  0.00002
581.3  0.00002
581.4  0.00002
581.5  0.00002
581.6  0.00002
581.7  0.00002
581.8  0.00002
581.9  0.00002
582.0  0.00002
582.1  0.00002
582.2  0.00002
582.3  0.00002
582.4  0.00002
582.5  0.00002
582.6  0.00002
582.7  0.00002
582.8  0.00002
582.9  0.00002
583.0  0.00001
583.1  0.00001
583.2  0.00001
583.3  0.00001
583.4  0.00001
583.5  0.00001
583.6  0.00001
583.7  0.00001
583.8  0.00001
583.9  0.00001
584.0  0.00001
584.1  0.00001
584.2  0.00001
584.3  0.00001
584.4  0.00001
584.5  0.00001
584.6  0.00001
584.7  0.00001
584.8  0.00001
584.9  0.00001
585.0  0.00001
585.1  0.00001
585.2  0.00001
585.3  0.00001
585.4  0.00001
585.5  0.00001
585.6  0.00001
585.7  0.00001
585.8  0.00001
585.9  0.00001
586.0  0.00001
586.1  0.00001
586.2  0.00001
586.3  0.00001
586.4  0.00001
586.5  0.00001
586.6  0.00001
586.7  0.00001
586.8  0.00001
586.9  0.00001
587.0  0.00001
587.1  0.00001
587.2  0.00001
587.3  0.00001
587.4  0.00001
587.5  0.00001
587.6  0.00002
587.7  0.00002
587.8  0.00002
587.9  0.00002
588.0  0.00002
588.1  0.00002
588.2  0.00002
588.3  0.00002
588.4  0.00002
588.5  0.00002
588.6  0.00002
588.7  0.00002
588.8  0.00002
588.9  0.00001
589.0  0.00001
589.1  0.00001
589.2  0.00001
589.3  0.00001
589.4  0.00001
589.5  0.00001
589.6  0.00001
589.7  0.00001
589.8  0.00001
589.9  0.00001
590.0  0.00001
590.1  0.00001
590.2  0.00001
590.3  0.00001
590.4  0.00001
590.5  0.00001
590.6  0.00001
590.7  0.00001
590.8  0.00001
590.9  0.00002
591.0  0.00002
591.1  0.00002
591.2  0.00001
591.3  0.00001
591.4  0.00001
591.5  0.00001
591.6  0.00001
591.7  0.00001
591.8  0.00000
591.9  0.00000
592.0  0.00000
592.1  0.00000
592.2  0.00000
592.3  0.00001
592.4  0.00001
592.5  0.00001
592.6  0.00001
592.7  0.00001
592.8  0.00001
592.9  0.00002
593.0  0.00006
593.1  0.00003
593.2  0.00002
593.3  0.00001
593.4  0.00001
593.5  0.00001
593.6  0.00001
593.7  0.00001
593.8  0.00001
593.9  0.00001
594.0  0.00000
594.1  0.00001
594.2  0.00001
594.3  0.00001
594.4  0.00001
594.5  0.00001
594.6  0.00001
594.7  0.00002
594.8  0.00002
594.9  0.00004
595.0  0.00011
595.1  0.00006
595.2  0.00004
595.3  0.00003
595.4  0.00002
595.5  0.00002
595.6  0.00002
595.7  0.00002
595.8  0.00001
595.9  0.00001
596.0  0.00001
596.1  0.00001
596.2  0.00001
596.3  0.00001
596.4  0.00001
596.5  0.00001
596.6  0.00001
596.7  0.00001
596.8  0.00001
596.9  0.00001
597.0  0.00001
597.1  0.00001
597.2  0.00001
597.3  0.00001
597.4  0.00001
597.5  0.00001
597.6  0.00002
597.7  0.00002
597.8  0.00003
597.9  0.00005
598.0  0.00020
598.1  0.00005
598.2  0.00003
598.3  0.00002
598.4  0.00001
598.5  0.00001
598.6  0.00001
598.7  0.00001
598.8  0.00001
598.9  0.00000
599.0  0.00000
599.1  0.00000
599.2  0.00000
599.3  0.00000
599.4  0.00000
599.5  0.00001
599.6  0.00001
599.7  0.00001
599.8  0.00001
599.9  0.00002
600.0  0.00011
600.1  0.00002
600.2  0.00001
600.3  0.00001
600.4  0.00000
600.5  0.00000
600.6  0.00000
600.7  0.00000
600.8  0.00000
600.9  0.00000
601.0  0.00000
601.1  0.00000
601.2  0.00000
601.3  0.00000
601.4  0.00000
601.5  0.00000
601.6  0.00000
601.7  0.00000
601.8  0.00000
601.9  0.00000
602.0  0.00000
602.1  0.00000
602.2  0.00000
602.3  0.00000
602.4  0.00000
602.5  0.00000
602.6  0.00000
602.7  0.00000
602.8  0.00000
602.9  0.00000
603.0  0.00000
603.1  0.00000
603.2  0.00000
603.3  0.00000
603.4  0.00000
603.5  0.00000
603.6  0.00000
603.7  0.00000
603.8  0.00000
603.9  0.00000
604.0  0.00000
604.1  0.00000
604.2  0.00000
604.3  0.00000
604.4  0.00000
604.5  0.00000
604.6  0.00000
604.7  0.00000
604.8  0.00000
604.9  0.00000
605.0  0.00002
605.1  0.00000
605.2  0.00000
605.3  0.00000
605.4  0.00000
605.5  0.00000
605.6  0.00000
605.7  0.00000
605.8  0.00000
605.9  0.00000
606.0  0.00000
606.1  0.00000
606.2  0.00000
606.3  0.00000
606.4  0.00000
606.5  0.00000
606.6  0.00000
606.7  0.00000
606.8  0.00000
606.9  0.00000
607.0  0.00001
607.1  0.00001
607.2  0.00001
607.3  0.00000
607.4  0.00000
607.5  0.00000
607.6  0.00000
607.7  0.00000
607.8  0.00000
607.9  0.00000
608.0  0.00000
608.1  0.00000
608.2  0.00000
608.3  0.00000
608.4  0.00000
608.5  0.00000
608.6  0.00000
608.7  0.00000
608.8  0.00000
608.9  0.00000
609.0  0.00000
609.1  0.00000
609.2  0.00000
609.3  0.00000
609.4  0.00000
609.5  0.00000
609.6  0.00001
609.7  0.00001
609.8  0.00001
609.9  0.00001
610.0  0.00002
610.1  0.00001
610.2  0.00001
610.3  0.00001
610.4  0.00000
610.5  0.00000
610.6  0.00000
610.7  0.00000
610.8  0.00000
610.9  0.00000
611.0  0.00000
611.1  0.00000
611.2  0.00000
611.3  0.00000
611.4  0.00001
611.5  0.00001
611.6  0.00001
611.7  0.00001
611.8  0.00001
611.9  0.00002
612.0  0.00004
612.1  0.00002
612.2  0.00001
612.3  0.00001
612.4  0.00001
612.5  0.00001
612.6  0.00001
612.7  0.00001
612.8  0.00000
612.9  0.00000
613.0  0.00000
613.1  0.00000
613.2  0.00001
613.3  0.00001
613.4  0.00001
613.5  0.00001
613.6  0.00001
613.7  0.00001
613.8  0.00001
613.9  0.00002
614.0  0.00003
614.1  0.00003
614.2  0.00003
614.3  0.00003
614.4  0.00003
614.5  0.00002
614.6  0.00002
614.7  0.00002
614.8  0.00002
614.9  0.00002
615.0  0.00002
615.1  0.00001
615.2  0.00001
615.3  0.00000
615.4  0.00000
615.5  0.00000
615.6  0.00000
615.7  0.00000
615.8  0.00000
615.9  0.00000
616.0  0.00000
616.1  0.00000
616.2  0.00000
616.3  0.00000
616.4  0.00000
616.5  0.00000
616.6  0.00000
616.7  0.00000
616.8  0.00000
616.9  0.00001
617.0  0.00001
617.1  0.00000
617.2  0.00000
617.3  0.00000
617.4  0.00000
617.5  0.00000
617.6  0.00000
617.7  0.00000
617.8  0.00000
617.9  0.00000
618.0  0.00000
618.1  0.00000
618.2  0.00000
618.3  0.00000
618.4  0.00000
618.5  0.00000
618.6  0.00000
618.7  0.00000
618.8  0.00000
618.9  0.00000
619.0  0.00001
619.1  0.00001
619.2  0.00001
619.3  0.00001
619.4  0.00000
619.5  0.00000
619.6  0.00000
619.7  0.00000
619.8  0.00000
619.9  0.00000
620.0  0.00000
620.1  0.00000
620.2  0.00000
620.3  0.00000
620.4  0.00000
620.5  0.00000
620.6  0.00000
620.7  0.00000
620.8  0.00000
620.9  0.00000
621.0  0.00000
621.1  0.00000
621.2  0.00000
621.3  0.00000
621.4  0.00000
621.5  0.00000
621.6  0.00000
621.7  0.00000
621.8  0.00000
621.9  0.00000
622.0  0.00000
622.1  0.00000
622.2  0.00000
622.3  0.00000
622.4  0.00000
622.5  0.00000
622.6  0.00000
622.7  0.00000
622.8  0.00000
622.9  0.00000
623.0  0.00000
623.1  0.00000
623.2  0.00000
623.3  0.00000
623.4  0.00000
623.5  0.00000
623.6  0.00000
623.7  0.00000
623.8  0.00001
623.9  0.00001
624.0  0.00001
624.1  0.00001
624.2  0.00001
624.3  0.00001
624.4  0.00001
624.5  0.00001
624.6  0.00001
624.7  0.00001
624.8  0.00001
624.9  0.00001
625.0  0.00001
625.1  0.00001
625.2  0.00001
625.3  0.00001
625.4  0.00001
625.5  0.00001
625.6  0.00001
625.7  0.00001
625.8  0.00001
625.9  0.00001
626.0  0.00001
626.1  0.00001
626.2  0.00001
626.3  0.00001
626.4  0.00001
626.5  0.00001
626.6  0.00001
626.7  0.00001
626.8  0.00001
626.9  0.00001
627.0  0.00001
627.1  0.00001
627.2  0.00001
627.3  0.00001
627.4  0.00001
627.5  0.00002
627.6  0.00002
627.7  0.00002
627.8  0.00002
627.9  0.00002
628.0  0.00002
628.1  0.00002
628.2  0.00002
628.3  0.00002
628.4  0.00002
628.5  0.00002
628.6  0.00002
628.7  0.00001
628.8  0.00001
628.9  0.00001
629.0  0.00001
629.1  0.00001
629.2  0.00001
629.3  0.00001
629.4  0.00001
629.5  0.00001
629.6  0.00001
629.7  0.00001
629.8  0.00001
629.9  0.00001
630.0  0.00001
630.1  0.00001
630.2  0.00001
630.3  0.00001
630.4  0.00001
630.5  0.00001
630.6  0.00001
630.7  0.00001
630.8  0.00001
630.9  0.00001
631.0  0.00001
631.1  0.00001
631.2  0.00001
631.3  0.00001
631.4  0.00001
631.5  0.00001
631.6  0.00001
631.7  0.00001
631.8  0.00001
631.9  0.00001
632.0  0.00001
632.1  0.00001
632.2  0.00001
632.3  0.00001
632.4  0.00001
632.5  0.00001
632.6  0.00001
632.7  0.00001
632.8  0.00001
632.9  0.00001
633.0  0.00001
633.1  0.00001
633.2  0.00001
633.3  0.00001
633.4  0.00001
633.5  0.00001
633.6  0.00001
633.7  0.00001
633.8  0.00001
633.9  0.00001
634.0  0.00001
634.1  0.00001
634.2  0.00001
634.3  0.00001
634.4  0.00001
634.5  0.00001
634.6  0.00001
634.7  0.00001
634.8  0.00001
634.9  0.00001
635.0  0.00001
635.1  0.00001
635.2  0.00001
635.3  0.00001
635.4  0.00001
635.5  0.00001
635.6  0.00001
635.7  0.00001
635.8  0.00001
635.9  0.00001
636.0  0.00001
636.1  0.00001
636.2  0.00001
636.3  0.00001
636.4  0.00001
636.5  0.00001
636.6  0.00001
636.7  0.00001
636.8  0.00001
636.9  0.00001
637.0  0.00001
637.1  0.00001
637.2  0.00001
637.3  0.00001
637.4  0.00001
637.5  0.00001
637.6  0.00001
637.7  0.00001
637.8  0.00001
637.9  0.00001
638.0  0.00001
638.1  0.00001
638.2  0.00001
638.3  0.00001
638.4  0.00001
638.5  0.00001
638.6  0.00001
638.7  0.00001
638.8  0.00001
638.9  0.00001
639.0  0.00001
639.1  0.00001
639.2  0.00001
639.3  0.00001
639.4  0.00001
639.5  0.00001
639.6  0.00001
639.7  0.00001
639.8  0.00001
639.9  0.00001
640.0  0.00001
640.1  0.00001
640.2  0.00001
640.3  0.00001
640.4  0.00001
640.5  0.00001
640.6  0.00001
640.7  0.00001
640.8  0.00002
640.9  0.00002
641.0  0.00002
641.1  0.00002
641.2  0.00002
641.3  0.00002
641.4  0.00002
641.5  0.00002
641.6  0.00002
641.7  0.00002
641.8  0.00002
641.9  0.00002
642.0  0.00002
642.1  0.00002
642.2  0.00002
642.3  0.00002
642.4  0.00002
642.5  0.00002
642.6  0.00002
642.7  0.00002
642.8  0.00003
642.9  0.00003
643.0  0.00003
643.1  0.00003
643.2  0.00003
643.3  0.00003
643.4  0.00003
643.5  0.00003
643.6  0.00003
643.7  0.00003
643.8  0.00003
643.9  0.00003
644.0  0.00003
644.1  0.00003
644.2  0.00003
644.3  0.00003
644.4  0.00003
644.5  0.00003
644.6  0.00003
644.7  0.00003
644.8  0.00003
644.9  0.00003
645.0  0.00003
645.1  0.00003
645.2  0.00003
645.3  0.00003
645.4  0.00003
645.5  0.00003
645.6  0.00003
645.7  0.00003
645.8  0.00003
645.9  0.00003
646.0  0.00003
646.1  0.00003
646.2  0.00003
646.3  0.00004
646.4  0.00004
646.5  0.00004
646.6  0.00004
646.7  0.00004
646.8  0.00004
646.9  0.00004
647.0  0.00004
647.1  0.00004
647.2  0.00004
647.3  0.00004
647.4  0.00004
647.5  0.00004
647.6  0.00004
647.7  0.00004
647.8  0.00004
647.9  0.00004
648.0  0.00004
648.1  0.00004
648.2  0.00004
648.3  0.00004
648.4  0.00004
648.5  0.00004
648.6  0.00004
648.7  0.00004
648.8  0.00004
648.9  0.00004
649.0  0.00004
649.1  0.00004
649.2  0.00004
649.3  0.00004
649.4  0.00004
649.5  0.00004
649.6  0.00004
649.7  0.00004
649.8  0.00004
649.9  0.00004
650.0  0.00004
650.1  0.00004
650.2  0.00004
650.3  0.00004
650.4  0.00005
650.5  0.00005
650.6  0.00005
650.7  0.00005
650.8  0.00005
650.9  0.00005
651.0  0.00005
651.1  0.00005
651.2  0.00005
651.3  0.00005
651.4  0.00005
651.5  0.00005
651.6  0.00005
651.7  0.00006
651.8  0.00006
651.9  0.00006
652.0  0.00006
652.1  0.00006
652.2  0.00006
652.3  0.00006
652.4  0.00006
652.5  0.00007
652.6  0.00007
652.7  0.00007
652.8  0.00007
652.9  0.00007
653.0  0.00007
653.1  0.00007
653.2  0.00008
653.3  0.00008
653.4  0.00008
653.5  0.00008
653.6  0.00008
653.7  0.00009
653.8  0.00009
653.9  0.00009
654.0  0.00009
654.1  0.00010
654.2  0.00010
654.3  0.00010
654.4  0.00010
654.5  0.00011
654.6  0.00011
654.7  0.00011
654.8  0.00012
654.9  0.00012
655.0  0.00012
655.1  0.00013
655.2  0.00013
655.3  0.00013
655.4  0.00014
655.5  0.00014
655.6  0.00015
655.7  0.00015
655.8  0.00016
655.9  0.00016
656.0  0.00017
656.1  0.00017
656.2  0.00018
656.3  0.00018
656.4  0.00019
656.5  0.00019
656.6  0.00020
656.7  0.00021
656.8  0.00021
656.9  0.00022
657.0  0.00023
657.1  0.00023
657.2  0.00024
657.3  0.00025
657.4  0.00026
657.5  0.00027
657.6  0.00027
657.7  0.00028
657.8  0.00029
657.9  0.00030
658.0  0.00031
658.1  0.00032
658.2  0.00033
658.3  0.00034
658.4  0.00036
658.5  0.00037
658.6  0.00038
658.7  0.00039
658.8  0.00040
658.9  0.00042
659.0  0.00043
659.1  0.00045
659.2  0.00046
659.3  0.00048
659.4  0.00049
659.5  0.00051
659.6  0.00053
659.7  0.00054
659.8  0.00056
659.9  0.00058
660.0  0.00060
660.1  0.00062
660.2  0.00064
660.3  0.00067
660.4  0.00069
660.5  0.00071
660.6  0.00074
660.7  0.00076
660.8  0.00079
660.9  0.00082
661.0  0.00084
661.1  0.00087
661.2  0.00090
661.3  0.00094
661.4  0.00097
661.5  0.00100
661.6  0.00104
661.7  0.00108
661.8  0.00112
661.9  0.00116
662.0  0.00120
662.1  0.00124
662.2  0.00129
662.3  0.00134
662.4  0.00138
662.5  0.00144
662.6  0.00149
662.7  0.00155
662.8  0.00161
662.9  0.00167
663.0  0.00173
663.1  0.00180
663.2  0.00187
663.3  0.00194
663.4  0.00202
663.5  0.00210
663.6  0.00219
663.7  0.00228
663.8  0.00237
663.9  0.00247
664.0  0.00257
664.1  0.00268
664.2  0.00280
664.3  0.00292
664.4  0.00304
664.5  0.00318
664.6  0.00332
664.7  0.00347
664.8  0.00362
664.9  0.00378
665.0  0.00396
665.1  0.00414
665.2  0.00434
665.3  0.00454
665.4  0.00476
665.5  0.00499
665.6  0.00523
665.7  0.00548
665.8  0.00576
665.9  0.00604
666.0  0.00635
666.1  0.00667
666.2  0.00702
666.3  0.00738
666.4  0.00777
666.5  0.00818
666.6  0.00862
666.7  0.00909
666.8  0.00958
666.9  0.01012
667.0  0.01068
667.1  0.01128
667.2  0.01193
667.3  0.01261
667.4  0.01335
667.5  0.01414
667.6  0.01498
667.7  0.01588
667.8  0.01684
667.9  0.01788
668.0  0.01899
668.1  0.02019
668.2  0.02147
668.3  0.02285
668.4  0.02433
668.5  0.02593
668.6  0.02766
668.7  0.02952
668.8  0.03152
668.9  0.03369
669.0  0.03604
669.1  0.03857
669.2  0.04132
669.3  0.04429
669.4  0.04752
669.5  0.05102
669.6  0.05483
669.7  0.05898
669.8  0.06350
669.9  0.06843
670.0  0.07380
670.1  0.07969
670.2  0.08613
670.3  0.09319
670.4  0.10093
670.5  0.10943
670.6  0.11877
670.7  0.12906
670.8  0.14039
670.9  0.15291
671.0  0.16674
671.1  0.18201
671.2  0.19895
671.3  0.21774
671.4  0.23864
671.5  0.26190
671.6  0.28784
671.7  0.31684
671.8  0.34928
671.9  0.38568
672.0  0.42654
672.1  0.47252
672.2  0.52442
672.3  0.58303
672.4  0.64945
672.5  0.72479
672.6  0.81049
672.7  0.90826
672.8  1.01995
672.9  1.14800
673.0  1.29499
673.1  1.46427
673.2  1.65987
673.3  1.88622
673.4  2.14919
673.5  2.45521
673.6  2.81253
673.7  3.23122
673.8  3.72260
673.9  4.30160
674.0  4.98482
674.1  5.79353
674.2  6.75352
674.3  7.89387
674.4  9.25205
674.5  10.86894
674.6  12.79471
674.7  15.08707
674.8  17.80513
674.9  21.01719
675.0  24.78227
675.1  29.15477
675.2  34.16914
675.3  39.81372
675.4  46.03719
675.5  52.70829
675.6  59.63777
675.7  66.57887
675.8  73.24232
675.9  79.36662
676.0  84.72874
676.1  89.19458
676.2  92.73961
676.3  95.40607
676.4  97.30310
676.5  98.56561
676.6  99.33916
676.7  99.75809
676.8  99.93658
676.9  99.96639
677.0  99.91624
677.1  99.83453
677.2  99.75294
677.3  99.68987
677.4  99.65348
677.5  99.64487
677.6  99.66037
677.7  99.69371
677.8  99.73756
677.9  99.78492
678.0  99.82986
678.1  99.86813
678.2  99.89764
678.3  99.91772
678.4  99.92884
678.5  99.93156
678.6  99.92529
678.7  99.90664
678.8  99.86745
678.9  99.79241
679.0  99.65681
679.1  99.42364
679.2  99.04102
679.3  98.44150
679.4  97.53964
679.5  96.23740
679.6  94.42660
679.7  91.99962
679.8  88.87067
679.9  84.98292
680.0  80.34214
680.1  75.01364
680.2  69.12781
680.3  62.88031
680.4  56.48168
680.5  50.15736
680.6  44.09377
680.7  38.43299
680.8  33.27583
680.9  28.66140
681.0  24.60106
681.1  21.06893
681.2  18.02285
681.3  15.41669
681.4  13.19455
681.5  11.30776
681.6  9.70723
681.7  8.34949
681.8  7.19879
681.9  6.22144
682.0  5.39113
682.1  4.68403
682.2  4.08023
682.3  3.56410
682.4  3.12129
682.5  2.74090
682.6  2.41309
682.7  2.12969
682.8  1.88436
682.9  1.67117
683.0  1.48568
683.1  1.32403
683.2  1.18247
683.3  1.05838
683.4  0.94919
683.5  0.85303
683.6  0.76809
683.7  0.69286
683.8  0.62617
683.9  0.56686
684.0  0.51407
684.1  0.46689
684.2  0.42470
684.3  0.38694
684.4  0.35304
684.5  0.32261
684.6  0.29521
684.7  0.27050
684.8  0.24819
684.9  0.22801
685.0  0.20975
685.1  0.19321
685.2  0.17818
685.3  0.16451
685.4  0.15205
685.5  0.14070
685.6  0.13033
685.7  0.12084
685.8  0.11216
685.9  0.10420
686.0  0.09690
686.1  0.09019
686.2  0.08403
686.3  0.07835
686.4  0.07312
686.5  0.06830
686.6  0.06384
686.7  0.05973
686.8  0.05592
686.9  0.05240
687.0  0.04913
687.1  0.04611
687.2  0.04329
687.3  0.04068
687.4  0.03826
687.5  0.03600
687.6  0.03390
687.7  0.03194
687.8  0.03011
687.9  0.02841
688.0  0.02682
688.1  0.02533
688.2  0.02393
688.3  0.02263
688.4  0.02141
688.5  0.02027
688.6  0.01920
688.7  0.01819
688.8  0.01725
688.9  0.01637
689.0  0.01554
689.1  0.01476
689.2  0.01403
689.3  0.01334
689.4  0.01269
689.5  0.01207
689.6  0.01150
689.7  0.01095
689.8  0.01044
689.9  0.00996
690.0  0.00950
690.1  0.00906
690.2  0.00866
690.3  0.00827
690.4  0.00790
690.5  0.00755
690.6  0.00723
690.7  0.00691
690.8  0.00662
690.9  0.00634
691.0  0.00607
691.1  0.00582
691.2  0.00558
691.3  0.00536
691.4  0.00514
691.5  0.00494
691.6  0.00474
691.7  0.00456
691.8  0.00438
691.9  0.00421
692.0  0.00405
692.1  0.00390
692.2  0.00375
692.3  0.00362
692.4  0.00348
692.5  0.00336
692.6  0.00324
692.7  0.00312
692.8  0.00301
692.9  0.00291
693.0  0.00281
693.1  0.00271
693.2  0.00262
693.3  0.00253
693.4  0.00245
693.5  0.00237
693.6  0.00229
693.7  0.00222
693.8  0.00215
693.9  0.00208
694.0  0.00202
694.1  0.00195
694.2  0.00189
694.3  0.00184
694.4  0.00178
694.5  0.00173
694.6  0.00168
694.7  0.00163
694.8  0.00158
694.9  0.00154
695.0  0.00149
695.1  0.00145
695.2  0.00141
695.3  0.00137
695.4  0.00134
695.5  0.00130
695.6  0.00127
695.7  0.00123
695.8  0.00120
695.9  0.00117
696.0  0.00114
696.1  0.00111
696.2  0.00109
696.3  0.00106
696.4  0.00103
696.5  0.00101
696.6  0.00098
696.7  0.00096
696.8  0.00094
696.9  0.00092
697.0  0.00090
697.1  0.00087
697.2  0.00086
697.3  0.00084
697.4  0.00082
697.5  0.00080
697.6  0.00078
697.7  0.00077
697.8  0.00075
697.9  0.00073
698.0  0.00072
698.1  0.00070
698.2  0.00069
698.3  0.00067
698.4  0.00066
698.5  0.00065
698.6  0.00063
698.7  0.00062
698.8  0.00061
698.9  0.00060
699.0  0.00059
699.1  0.00057
699.2  0.00056
699.3  0.00055
699.4  0.00054
699.5  0.00053
699.6  0.00052
699.7  0.00051
699.8  0.00050
699.9  0.00049
700.0  0.00049
700.1  0.00048
700.2  0.00047
700.3  0.00046
700.4  0.00045
700.5  0.00044
700.6  0.00044
700.7  0.00043
700.8  0.00042
700.9  0.00041
701.0  0.00041
701.1  0.00040
701.2  0.00039
701.3  0.00038
701.4  0.00038
701.5  0.00037
701.6  0.00036
701.7  0.00036
701.8  0.00035
701.9  0.00035
702.0  0.00034
702.1  0.00033
702.2  0.00033
702.3  0.00032
702.4  0.00032
702.5  0.00031
702.6  0.00031
702.7  0.00030
702.8  0.00030
702.9  0.00029
703.0  0.00029
703.1  0.00028
703.2  0.00028
703.3  0.00027
703.4  0.00027
703.5  0.00026
703.6  0.00026
703.7  0.00025
703.8  0.00025
703.9  0.00024
704.0  0.00024
704.1  0.00024
704.2  0.00023
704.3  0.00023
704.4  0.00022
704.5  0.00022
704.6  0.00022
704.7  0.00021
704.8  0.00021
704.9  0.00020
705.0  0.00020
705.1  0.00020
705.2  0.00019
705.3  0.00019
705.4  0.00019
705.5  0.00018
705.6  0.00018
705.7  0.00018
705.8  0.00017
705.9  0.00017
706.0  0.00017
706.1  0.00016
706.2  0.00016
706.3  0.00016
706.4  0.00016
706.5  0.00015
706.6  0.00015
706.7  0.00015
706.8  0.00015
706.9  0.00014
707.0  0.00014
707.1  0.00014
707.2  0.00014
707.3  0.00013
707.4  0.00013
707.5  0.00013
707.6  0.00013
707.7  0.00012
707.8  0.00012
707.9  0.00012
708.0  0.00012
708.1  0.00012
708.2  0.00011
708.3  0.00011
708.4  0.00011
708.5  0.00011
708.6  0.00011
708.7  0.00010
708.8  0.00010
708.9  0.00010
709.0  0.00010
709.1  0.00010
709.2  0.00010
709.3  0.00009
709.4  0.00009
709.5  0.00009
709.6  0.00009
709.7  0.00009
709.8  0.00009
709.9  0.00009
710.0  0.00008
710.1  0.00008
710.2  0.00008
710.3  0.00008
710.4  0.00008
710.5  0.00008
710.6  0.00008
710.7  0.00008
710.8  0.00007
710.9  0.00007
711.0  0.00007
711.1  0.00007
711.2  0.00007
711.3  0.00007
711.4  0.00007
711.5  0.00007
711.6  0.00007
711.7  0.00007
711.8  0.00007
711.9  0.00006
712.0  0.00006
712.1  0.00006
712.2  0.00006
712.3  0.00006
712.4  0.00006
712.5  0.00006
712.6  0.00006
712.7  0.00006
712.8  0.00006
712.9  0.00006
713.0  0.00006
713.1  0.00006
713.2  0.00006
713.3  0.00005
713.4  0.00005
713.5  0.00005
713.6  0.00005
713.7  0.00005
713.8  0.00005
713.9  0.00005
714.0  0.00005
714.1  0.00005
714.2  0.00005
714.3  0.00005
714.4  0.00005
714.5  0.00005
714.6  0.00005
714.7  0.00005
714.8  0.00005
714.9  0.00005
715.0  0.00005
715.1  0.00005
715.2  0.00005
715.3  0.00005
715.4  0.00005
715.5  0.00004
715.6  0.00004
715.7  0.00004
715.8  0.00004
715.9  0.00004
716.0  0.00004
716.1  0.00004
716.2  0.00004
716.3  0.00004
716.4  0.00004
716.5  0.00004
716.6  0.00004
716.7  0.00004
716.8  0.00004
716.9  0.00004
717.0  0.00004
717.1  0.00004
717.2  0.00004
717.3  0.00004
717.4  0.00004
717.5  0.00004
717.6  0.00004
717.7  0.00004
717.8  0.00004
717.9  0.00004
718.0  0.00004
718.1  0.00004
718.2  0.00004
718.3  0.00004
718.4  0.00004
718.5  0.00004
718.6  0.00004
718.7  0.00004
718.8  0.00004
718.9  0.00004
719.0  0.00004
719.1  0.00004
719.2  0.00004
719.3  0.00004
719.4  0.00004
719.5  0.00004
719.6  0.00004
719.7  0.00004
719.8  0.00004
719.9  0.00004
720.0  0.00004
720.1  0.00004
720.2  0.00004
720.3  0.00004
720.4  0.00004
720.5  0.00004
720.6  0.00004
720.7  0.00004
720.8  0.00004
720.9  0.00004
721.0  0.00004
721.1  0.00004
721.2  0.00004
721.3  0.00004
721.4  0.00004
721.5  0.00004
721.6  0.00004
721.7  0.00004
721.8  0.00004
721.9  0.00004
722.0  0.00004
722.1  0.00004
722.2  0.00004
722.3  0.00004
722.4  0.00004
722.5  0.00005
722.6  0.00005
722.7  0.00005
722.8  0.00005
722.9  0.00005
723.0  0.00005
723.1  0.00005
723.2  0.00005
723.3  0.00005
723.4  0.00005
723.5  0.00005
723.6  0.00005
723.7  0.00005
723.8  0.00005
723.9  0.00005
724.0  0.00005
724.1  0.00005
724.2  0.00005
724.3  0.00005
724.4  0.00005
724.5  0.00005
724.6  0.00005
724.7  0.00005
724.8  0.00005
724.9  0.00005
725.0  0.00005
725.1  0.00005
725.2  0.00005
725.3  0.00005
725.4  0.00005
725.5  0.00005
725.6  0.00005
725.7  0.00005
725.8  0.00006
725.9  0.00006
726.0  0.00006
726.1  0.00006
726.2  0.00006
726.3  0.00006
726.4  0.00006
726.5  0.00006
726.6  0.00006
726.7  0.00006
726.8  0.00006
726.9  0.00006
727.0  0.00006
727.1  0.00006
727.2  0.00006
727.3  0.00006
727.4  0.00006
727.5  0.00006
727.6  0.00005
727.7  0.00005
727.8  0.00005
727.9  0.00005
728.0  0.00005
728.1  0.00005
728.2  0.00005
728.3  0.00005
728.4  0.00005
728.5  0.00005
728.6  0.00005
728.7  0.00005
728.8  0.00005
728.9  0.00005
729.0  0.00005
729.1  0.00005
729.2  0.00005
729.3  0.00005
729.4  0.00005
729.5  0.00005
729.6  0.00005
729.7  0.00005
729.8  0.00005
729.9  0.00004
730.0  0.00004
730.1  0.00004
730.2  0.00004
730.3  0.00004
730.4  0.00004
730.5  0.00004
730.6  0.00004
730.7  0.00004
730.8  0.00004
730.9  0.00004
731.0  0.00004
731.1  0.00004
731.2  0.00004
731.3  0.00004
731.4  0.00004
731.5  0.00004
731.6  0.00004
731.7  0.00004
731.8  0.00003
731.9  0.00003
732.0  0.00003
732.1  0.00003
732.2  0.00003
732.3  0.00003
732.4  0.00003
732.5  0.00003
732.6  0.00003
732.7  0.00003
732.8  0.00003
732.9  0.00003
733.0  0.00003
733.1  0.00003
733.2  0.00003
733.3  0.00003
733.4  0.00003
733.5  0.00003
733.6  0.00003
733.7  0.00003
733.8  0.00003
733.9  0.00003
734.0  0.00003
734.1  0.00003
734.2  0.00003
734.3  0.00003
734.4  0.00003
734.5  0.00002
734.6  0.00002
734.7  0.00002
734.8  0.00002
734.9  0.00002
735.0  0.00002
735.1  0.00002
735.2  0.00002
735.3  0.00002
735.4  0.00002
735.5  0.00002
735.6  0.00002
735.7  0.00002
735.8  0.00002
735.9  0.00002
736.0  0.00002
736.1  0.00002
736.2  0.00002
736.3  0.00002
736.4  0.00002
736.5  0.00002
736.6  0.00002
736.7  0.00002
736.8  0.00002
736.9  0.00002
737.0  0.00002
737.1  0.00002
737.2  0.00002
737.3  0.00002
737.4  0.00002
737.5  0.00002
737.6  0.00002
737.7  0.00002
737.8  0.00002
737.9  0.00002
738.0  0.00002
738.1  0.00002
738.2  0.00002
738.3  0.00002
738.4  0.00002
738.5  0.00002
738.6  0.00002
738.7  0.00002
738.8  0.00002
738.9  0.00002
739.0  0.00002
739.1  0.00002
739.2  0.00002
739.3  0.00002
739.4  0.00002
739.5  0.00002
739.6  0.00002
739.7  0.00002
739.8  0.00002
739.9  0.00002
740.0  0.00002
740.1  0.00002
740.2  0.00002
740.3  0.00002
740.4  0.00002
740.5  0.00002
740.6  0.00002
740.7  0.00002
740.8  0.00002
740.9  0.00002
741.0  0.00002
741.1  0.00002
741.2  0.00002
741.3  0.00003
741.4  0.00003
741.5  0.00003
741.6  0.00003
741.7  0.00003
741.8  0.00003
741.9  0.00003
742.0  0.00003
742.1  0.00003
742.2  0.00003
742.3  0.00003
742.4  0.00003
742.5  0.00003
742.6  0.00003
742.7  0.00003
742.8  0.00003
742.9  0.00003
743.0  0.00003
743.1  0.00003
743.2  0.00003
743.3  0.00003
743.4  0.00003
743.5  0.00004
743.6  0.00004
743.7  0.00004
743.8  0.00004
743.9  0.00004
744.0  0.00004
744.1  0.00004
744.2  0.00004
744.3  0.00004
744.4  0.00004
744.5  0.00004
744.6  0.00004
744.7  0.00005
744.8  0.00005
744.9  0.00005
745.0  0.00005
745.1  0.00005
745.2  0.00005
745.3  0.00005
745.4  0.00005
745.5  0.00006
745.6  0.00006
745.7  0.00006
745.8  0.00006
745.9  0.00006
746.0  0.00006
746.1  0.00007
746.2  0.00007
746.3  0.00007
746.4  0.00007
746.5  0.00007
746.6  0.00008
746.7  0.00008
746.8  0.00008
746.9  0.00008
747.0  0.00008
747.1  0.00009
747.2  0.00009
747.3  0.00009
747.4  0.00009
747.5  0.00010
747.6  0.00010
747.7  0.00010
747.8  0.00010
747.9  0.00011
748.0  0.00011
748.1  0.00011
748.2  0.00011
748.3  0.00012
748.4  0.00012
748.5  0.00012
748.6  0.00012
748.7  0.00012
748.8  0.00012
748.9  0.00013
749.0  0.00013
749.1  0.00013
749.2  0.00013
749.3  0.00013
749.4  0.00013
749.5  0.00013
749.6  0.00013
749.7  0.00013
749.8  0.00013
749.9  0.00013
750.0  0.00013
750.1  0.00013
750.2  0.00012
750.3  0.00012
750.4  0.00012
750.5  0.00012
750.6  0.00012
750.7  0.00012
750.8  0.00011
750.9  0.00011
751.0  0.00011
751.1  0.00011
751.2  0.00011
751.3  0.00010
751.4  0.00010
751.5  0.00010
751.6  0.00010
751.7  0.00010
751.8  0.00009
751.9  0.00009
752.0  0.00009
752.1  0.00009
752.2  0.00009
752.3  0.00008
752.4  0.00008
752.5  0.00008
752.6  0.00008
752.7  0.00008
752.8  0.00008
752.9  0.00007
753.0  0.00007
753.1  0.00007
753.2  0.00007
753.3  0.00007
753.4  0.00007
753.5  0.00007
753.6  0.00006
753.7  0.00006
753.8  0.00006
753.9  0.00006
754.0  0.00006
754.1  0.00006
754.2  0.00006
754.3  0.00006
754.4  0.00006
754.5  0.00006
754.6  0.00005
754.7  0.00005
754.8  0.00005
754.9  0.00005
755.0  0.00005
755.1  0.00005
755.2  0.00005
755.3  0.00005
755.4  0.00005
755.5  0.00005
755.6  0.00005
755.7  0.00005
755.8  0.00005
755.9  0.00005
756.0  0.00005
756.1  0.00005
756.2  0.00004
756.3  0.00004
756.4  0.00004
756.5  0.00004
756.6  0.00004
756.7  0.00004
756.8  0.00004
756.9  0.00004
757.0  0.00004
757.1  0.00004
757.2  0.00004
757.3  0.00004
757.4  0.00004
757.5  0.00004
757.6  0.00004
757.7  0.00004
757.8  0.00004
757.9  0.00004
758.0  0.00004
758.1  0.00004
758.2  0.00004
758.3  0.00004
758.4  0.00004
758.5  0.00004
758.6  0.00004
758.7  0.00004
758.8  0.00004
758.9  0.00004
759.0  0.00004
759.1  0.00004
759.2  0.00004
759.3  0.00004
759.4  0.00004
759.5  0.00004
759.6  0.00004
759.7  0.00004
759.8  0.00004
759.9  0.00004
760.0  0.00004
760.1  0.00004
760.2  0.00004
760.3  0.00004
760.4  0.00004
760.5  0.00004
760.6  0.00004
760.7  0.00004
760.8  0.00004
760.9  0.00004
761.0  0.00004
761.1  0.00004
761.2  0.00004
761.3  0.00005
761.4  0.00005
761.5  0.00005
761.6  0.00005
761.7  0.00005
761.8  0.00005
761.9  0.00005
762.0  0.00005
762.1  0.00005
762.2  0.00005
762.3  0.00005
762.4  0.00005
762.5  0.00005
762.6  0.00005
762.7  0.00005
762.8  0.00005
762.9  0.00005
763.0  0.00006
763.1  0.00006
763.2  0.00006
763.3  0.00006
763.4  0.00006
763.5  0.00006
763.6  0.00006
763.7  0.00006
763.8  0.00006
763.9  0.00006
764.0  0.00007
764.1  0.00007
764.2  0.00007
764.3  0.00007
764.4  0.00007
764.5  0.00007
764.6  0.00007
764.7  0.00008
764.8  0.00008
764.9  0.00008
765.0  0.00008
765.1  0.00008
765.2  0.00008
765.3  0.00009
765.4  0.00009
765.5  0.00009
765.6  0.00009
765.7  0.00010
765.8  0.00010
765.9  0.00010
766.0  0.00010
766.1  0.00011
766.2  0.00011
766.3  0.00011
766.4  0.00012
766.5  0.00012
766.6  0.00012
766.7  0.00013
766.8  0.00013
766.9  0.00013
767.0  0.00014
767.1  0.00014
767.2  0.00015
767.3  0.00015
767.4  0.00016
767.5  0.00016
767.6  0.00017
767.7  0.00017
767.8  0.00018
767.9  0.00018
768.0  0.00019
768.1  0.00020
768.2  0.00020
768.3  0.00021
768.4  0.00022
768.5  0.00022
768.6  0.00023
768.7  0.00024
768.8  0.00025
768.9  0.00026
769.0  0.00027
769.1  0.00028
769.2  0.00029
769.3  0.00030
769.4  0.00031
769.5  0.00032
769.6  0.00033
769.7  0.00034
769.8  0.00035
769.9  0.00036
770.0  0.00038
770.1  0.00039
770.2  0.00040
770.3  0.00041
770.4  0.00043
770.5  0.00044
770.6  0.00045
770.7  0.00046
770.8  0.00048
770.9  0.00049
771.0  0.00050
771.1  0.00051
771.2  0.00052
771.3  0.00053
771.4  0.00054
771.5  0.00055
771.6  0.00056
771.7  0.00057
771.8  0.00058
771.9  0.00058
772.0  0.00059
772.1  0.00059
772.2  0.00060
772.3  0.00060
772.4  0.00060
772.5  0.00060
772.6  0.00060
772.7  0.00060
772.8  0.00060
772.9  0.00060
773.0  0.00059
773.1  0.00059
773.2  0.00058
773.3  0.00058
773.4  0.00057
773.5  0.00057
773.6  0.00056
773.7  0.00055
773.8  0.00055
773.9  0.00054
774.0  0.00053
774.1  0.00052
774.2  0.00051
774.3  0.00051
774.4  0.00050
774.5  0.00049
774.6  0.00048
774.7  0.00048
774.8  0.00047
774.9  0.00046
775.0  0.00045
775.1  0.00045
775.2  0.00044
775.3  0.00043
775.4  0.00043
775.5  0.00042
775.6  0.00041
775.7  0.00041
775.8  0.00040
775.9  0.00039
776.0  0.00039
776.1  0.00038
776.2  0.00038
776.3  0.00037
776.4  0.00037
776.5  0.00036
776.6  0.00036
776.7  0.00035
776.8  0.00035
776.9  0.00034
777.0  0.00034
777.1  0.00034
777.2  0.00033
777.3  0.00033
777.4  0.00033
777.5  0.00032
777.6  0.00032
777.7  0.00032
777.8  0.00031
777.9  0.00031
778.0  0.00031
778.1  0.00031
778.2  0.00030
778.3  0.00030
778.4  0.00030
778.5  0.00030
778.6  0.00030
778.7  0.00029
778.8  0.00029
778.9  0.00029
779.0  0.00029
779.1  0.00029
779.2  0.00029
779.3  0.00029
779.4  0.00029
779.5  0.00028
779.6  0.00028
779.7  0.00028
779.8  0.00028
779.9  0.00028
780.0  0.00028
780.1  0.00028
780.2  0.00028
780.3  0.00028
780.4  0.00028
780.5  0.00028
780.6  0.00028
780.7  0.00028
780.8  0.00028
780.9  0.00028
781.0  0.00028
781.1  0.00028
781.2  0.00028
781.3  0.00028
781.4  0.00028
781.5  0.00028
781.6  0.00028
781.7  0.00028
781.8  0.00028
781.9  0.00028
782.0  0.00028
782.1  0.00028
782.2  0.00029
782.3  0.00029
782.4  0.00029
782.5  0.00029
782.6  0.00029
782.7  0.00029
782.8  0.00029
782.9  0.00029
783.0  0.00029
783.1  0.00030
783.2  0.00030
783.3  0.00030
783.4  0.00030
783.5  0.00030
783.6  0.00030
783.7  0.00030
783.8  0.00031
783.9  0.00031
784.0  0.00031
784.1  0.00031
784.2  0.00031
784.3  0.00032
784.4  0.00032
784.5  0.00032
784.6  0.00032
784.7  0.00032
784.8  0.00033
784.9  0.00033
785.0  0.00033
785.1  0.00033
785.2  0.00034
785.3  0.00034
785.4  0.00034
785.5  0.00034
785.6  0.00034
785.7  0.00035
785.8  0.00035
785.9  0.00035
786.0  0.00036
786.1  0.00036
786.2  0.00036
786.3  0.00036
786.4  0.00037
786.5  0.00037
786.6  0.00037
786.7  0.00037
786.8  0.00038
786.9  0.00038
787.0  0.00038
787.1  0.00038
787.2  0.00039
787.3  0.00039
787.4  0.00039
787.5  0.00039
787.6  0.00040
787.7  0.00040
787.8  0.00040
787.9  0.00041
788.0  0.00041
788.1  0.00041
788.2  0.00041
788.3  0.00042
788.4  0.00042
788.5  0.00042
788.6  0.00042
788.7  0.00043
788.8  0.00043
788.9  0.00043
789.0  0.00043
789.1  0.00043
789.2  0.00044
789.3  0.00044
789.4  0.00044
789.5  0.00044
789.6  0.00044
789.7  0.00045
789.8  0.00045
789.9  0.00045
790.0  0.00045
790.1  0.00045
790.2  0.00045
790.3  0.00046
790.4  0.00046
790.5  0.00046
790.6  0.00046
790.7  0.00046
790.8  0.00046
790.9  0.00046
791.0  0.00046
791.1  0.00046
791.2  0.00047
791.3  0.00047
791.4  0.00047
791.5  0.00047
791.6  0.00047
791.7  0.00047
791.8  0.00047
791.9  0.00047
792.0  0.00047
792.1  0.00047
792.2  0.00047
792.3  0.00047
792.4  0.00047
792.5  0.00047
792.6  0.00046
792.7  0.00046
792.8  0.00046
792.9  0.00046
793.0  0.00046
793.1  0.00046
793.2  0.00046
793.3  0.00046
793.4  0.00046
793.5  0.00045
793.6  0.00045
793.7  0.00045
793.8  0.00045
793.9  0.00045
794.0  0.00045
794.1  0.00044
794.2  0.00044
794.3  0.00044
794.4  0.00044
794.5  0.00044
794.6  0.00043
794.7  0.00043
794.8  0.00043
794.9  0.00043
795.0  0.00042
795.1  0.00042
795.2  0.00042
795.3  0.00042
795.4  0.00041
795.5  0.00041
795.6  0.00041
795.7  0.00041
795.8  0.00040
795.9  0.00040
796.0  0.00040
796.1  0.00039
796.2  0.00039
796.3  0.00039
796.4  0.00039
796.5  0.00038
796.6  0.00038
796.7  0.00038
796.8  0.00037
796.9  0.00037
797.0  0.00037
797.1  0.00036
797.2  0.00036
797.3  0.00036
797.4  0.00035
797.5  0.00035
797.6  0.00035
797.7  0.00034
797.8  0.00034
797.9  0.00034
798.0  0.00033
798.1  0.00033
798.2  0.00033
798.3  0.00032
798.4  0.00032
798.5  0.00032
798.6  0.00031
798.7  0.00031
798.8  0.00031
798.9  0.00030
799.0  0.00030
799.1  0.00030
799.2  0.00029
799.3  0.00029
799.4  0.00029
799.5  0.00029
799.6  0.00028
799.7  0.00028
799.8  0.00028
799.9  0.00027
800.0  0.00027
800.1  0.00027
800.2  0.00026
800.3  0.00026
800.4  0.00026
800.5  0.00025
800.6  0.00025
800.7  0.00025
800.8  0.00025
800.9  0.00024
801.0  0.00024
801.1  0.00024
801.2  0.00023
801.3  0.00023
801.4  0.00023
801.5  0.00023
801.6  0.00022
801.7  0.00022
801.8  0.00022
801.9  0.00022
802.0  0.00021
802.1  0.00021
802.2  0.00021
802.3  0.00021
802.4  0.00020
802.5  0.00020
802.6  0.00020
802.7  0.00020
802.8  0.00019
802.9  0.00019
803.0  0.00019
803.1  0.00019
803.2  0.00018
803.3  0.00018
803.4  0.00018
803.5  0.00018
803.6  0.00018
803.7  0.00017
803.8  0.00017
803.9  0.00017
804.0  0.00017
804.1  0.00017
804.2  0.00016
804.3  0.00016
804.4  0.00016
804.5  0.00016
804.6  0.00016
804.7  0.00016
804.8  0.00015
804.9  0.00015
805.0  0.00015
805.1  0.00015
805.2  0.00015
805.3  0.00015
805.4  0.00014
805.5  0.00014
805.6  0.00014
805.7  0.00014
805.8  0.00014
805.9  0.00014
806.0  0.00013
806.1  0.00013
806.2  0.00013
806.3  0.00013
806.4  0.00013
806.5  0.00013
806.6  0.00013
806.7  0.00012
806.8  0.00012
806.9  0.00012
807.0  0.00012
807.1  0.00012
807.2  0.00012
807.3  0.00012
807.4  0.00012
807.5  0.00011
807.6  0.00011
807.7  0.00011
807.8  0.00011
807.9  0.00011
808.0  0.00011
808.1  0.00011
808.2  0.00011
808.3  0.00011
808.4  0.00011
808.5  0.00010
808.6  0.00010
808.7  0.00010
808.8  0.00010
808.9  0.00010
809.0  0.00010
809.1  0.00010
809.2  0.00010
809.3  0.00010
809.4  0.00010
809.5  0.00010
809.6  0.00009
809.7  0.00009
809.8  0.00009
809.9  0.00009
810.0  0.00009
810.1  0.00009
810.2  0.00009
810.3  0.00009
810.4  0.00009
810.5  0.00009
810.6  0.00009
810.7  0.00009
810.8  0.00009
810.9  0.00008
811.0  0.00008
811.1  0.00008
811.2  0.00008
811.3  0.00008
811.4  0.00008
811.5  0.00008
811.6  0.00008
811.7  0.00008
811.8  0.00008
811.9  0.00008
812.0  0.00008
812.1  0.00008
812.2  0.00008
812.3  0.00008
812.4  0.00008
812.5  0.00008
812.6  0.00008
812.7  0.00007
812.8  0.00007
812.9  0.00007
813.0  0.00007
813.1  0.00007
813.2  0.00007
813.3  0.00007
813.4  0.00007
813.5  0.00007
813.6  0.00007
813.7  0.00007
813.8  0.00007
813.9  0.00007
814.0  0.00007
814.1  0.00007
814.2  0.00007
814.3  0.00007
814.4  0.00007
814.5  0.00007
814.6  0.00007
814.7  0.00007
814.8  0.00007
814.9  0.00007
815.0  0.00007
815.1  0.00006
815.2  0.00006
815.3  0.00006
815.4  0.00006
815.5  0.00006
815.6  0.00006
815.7  0.00006
815.8  0.00006
815.9  0.00006
816.0  0.00006
816.1  0.00006
816.2  0.00006
816.3  0.00006
816.4  0.00006
816.5  0.00006
816.6  0.00006
816.7  0.00006
816.8  0.00006
816.9  0.00006
817.0  0.00006
817.1  0.00006
817.2  0.00006
817.3  0.00006
817.4  0.00006
817.5  0.00006
817.6  0.00006
817.7  0.00006
817.8  0.00006
817.9  0.00006
818.0  0.00006
818.1  0.00006
818.2  0.00006
818.3  0.00006
818.4  0.00006
818.5  0.00005
818.6  0.00005
818.7  0.00005
818.8  0.00005
818.9  0.00005
819.0  0.00005
819.1  0.00005
819.2  0.00005
819.3  0.00005
819.4  0.00005
819.5  0.00005
819.6  0.00005
819.7  0.00005
819.8  0.00005
819.9  0.00005
820.0  0.00005
820.1  0.00005
820.2  0.00005
820.3  0.00005
820.4  0.00005
820.5  0.00005
820.6  0.00005
820.7  0.00005
820.8  0.00005
820.9  0.00005
821.0  0.00005
821.1  0.00005
821.2  0.00005
821.3  0.00005
821.4  0.00005
821.5  0.00005
821.6  0.00005
821.7  0.00005
821.8  0.00005
821.9  0.00005
822.0  0.00005
822.1  0.00005
822.2  0.00005
822.3  0.00005
822.4  0.00005
822.5  0.00005
822.6  0.00005
822.7  0.00005
822.8  0.00005
822.9  0.00005
823.0  0.00004
823.1  0.00004
823.2  0.00004
823.3  0.00004
823.4  0.00004
823.5  0.00004
823.6  0.00004
823.7  0.00004
823.8  0.00004
823.9  0.00004
824.0  0.00004
824.1  0.00004
824.2  0.00004
824.3  0.00004
824.4  0.00004
824.5  0.00004
824.6  0.00004
824.7  0.00004
824.8  0.00004
824.9  0.00004
825.0  0.00004
825.1  0.00004
825.2  0.00004
825.3  0.00004
825.4  0.00004
825.5  0.00004
825.6  0.00004
825.7  0.00004
825.8  0.00004
825.9  0.00004
826.0  0.00004
826.1  0.00004
826.2  0.00004
826.3  0.00004
826.4  0.00004
826.5  0.00004
826.6  0.00004
826.7  0.00004
826.8  0.00004
826.9  0.00004
827.0  0.00004
827.1  0.00004
827.2  0.00004
827.3  0.00004
827.4  0.00004
827.5  0.00004
827.6  0.00004
827.7  0.00004
827.8  0.00003
827.9  0.00003
828.0  0.00003
828.1  0.00003
828.2  0.00003
828.3  0.00003
828.4  0.00003
828.5  0.00003
828.6  0.00003
828.7  0.00003
828.8  0.00003
828.9  0.00003
829.0  0.00003
829.1  0.00003
829.2  0.00003
829.3  0.00003
829.4  0.00003
829.5  0.00003
829.6  0.00003
829.7  0.00003
829.8  0.00003
829.9  0.00003
830.0  0.00003
830.1  0.00003
830.2  0.00003
830.3  0.00003
830.4  0.00003
830.5  0.00003
830.6  0.00003
830.7  0.00003
830.8  0.00003
830.9  0.00003
831.0  0.00003
831.1  0.00003
831.2  0.00003
831.3  0.00003
831.4  0.00003
831.5  0.00003
831.6  0.00003
831.7  0.00003
831.8  0.00003
831.9  0.00003
832.0  0.00003
832.1  0.00003
832.2  0.00003
832.3  0.00003
832.4  0.00003
832.5  0.00003
832.6  0.00003
832.7  0.00003
832.8  0.00003
832.9  0.00003
833.0  0.00003
833.1  0.00003
833.2  0.00003
833.3  0.00003
833.4  0.00003
833.5  0.00003
833.6  0.00003
833.7  0.00003
833.8  0.00003
833.9  0.00002
834.0  0.00002
834.1  0.00002
834.2  0.00002
834.3  0.00002
834.4  0.00002
834.5  0.00002
834.6  0.00002
834.7  0.00002
834.8  0.00002
834.9  0.00002
835.0  0.00002
835.1  0.00002
835.2  0.00002
835.3  0.00002
835.4  0.00002
835.5  0.00002
835.6  0.00002
835.7  0.00002
835.8  0.00002
835.9  0.00002
836.0  0.00002
836.1  0.00002
836.2  0.00002
836.3  0.00002
836.4  0.00002
836.5  0.00002
836.6  0.00002
836.7  0.00002
836.8  0.00002
836.9  0.00002
837.0  0.00002
837.1  0.00002
837.2  0.00002
837.3  0.00002
837.4  0.00002
837.5  0.00002
837.6  0.00002
837.7  0.00002
837.8  0.00002
837.9  0.00002
838.0  0.00002
838.1  0.00002
838.2  0.00002
838.3  0.00002
838.4  0.00002
838.5  0.00002
838.6  0.00002
838.7  0.00002
838.8  0.00002
838.9  0.00002
839.0  0.00002
839.1  0.00002
839.2  0.00002
839.3  0.00002
839.4  0.00002
839.5  0.00002
839.6  0.00002
839.7  0.00002
839.8  0.00002
839.9  0.00002
840.0  0.00002
840.1  0.00002
840.2  0.00002
840.3  0.00002
840.4  0.00002
840.5  0.00002
840.6  0.00002
840.7  0.00002
840.8  0.00002
840.9  0.00002
841.0  0.00002
841.1  0.00002
841.2  0.00002
841.3  0.00002
841.4  0.00002
841.5  0.00002
841.6  0.00002
841.7  0.00002
841.8  0.00002
841.9  0.00002
842.0  0.00002
842.1  0.00002
842.2  0.00002
842.3  0.00002
842.4  0.00002
842.5  0.00002
842.6  0.00002
842.7  0.00002
842.8  0.00002
842.9  0.00002
843.0  0.00002
843.1  0.00002
843.2  0.00002
843.3  0.00002
843.4  0.00002
843.5  0.00002
843.6  0.00002
843.7  0.00002
843.8  0.00002
843.9  0.00002
844.0  0.00002
844.1  0.00002
844.2  0.00002
844.3  0.00002
844.4  0.00002
844.5  0.00002
844.6  0.00002
844.7  0.00002
844.8  0.00002
844.9  0.00002
845.0  0.00002
845.1  0.00002
845.2  0.00002
845.3  0.00002
845.4  0.00002
845.5  0.00002
845.6  0.00002
845.7  0.00002
845.8  0.00002
845.9  0.00002
846.0  0.00002
846.1  0.00002
846.2  0.00002
846.3  0.00002
846.4  0.00002
846.5  0.00002
846.6  0.00002
846.7  0.00002
846.8  0.00002
846.9  0.00002
847.0  0.00002
847.1  0.00002
847.2  0.00002
847.3  0.00002
847.4  0.00002
847.5  0.00002
847.6  0.00002
847.7  0.00002
847.8  0.00002
847.9  0.00002
848.0  0.00002
848.1  0.00002
848.2  0.00002
848.3  0.00002
848.4  0.00002
848.5  0.00002
848.6  0.00002
848.7  0.00002
848.8  0.00002
848.9  0.00002
849.0  0.00002
849.1  0.00002
849.2  0.00002
849.3  0.00002
849.4  0.00002
849.5  0.00002
849.6  0.00002
849.7  0.00002
849.8  0.00002
849.9  0.00002
850.0  0.00002
850.1  0.00002
850.2  0.00002
850.3  0.00002
850.4  0.00003
850.5  0.00003
850.6  0.00003
850.7  0.00003
850.8  0.00003
850.9  0.00003
851.0  0.00003
851.1  0.00003
851.2  0.00003
851.3  0.00003
851.4  0.00003
851.5  0.00003
851.6  0.00003
851.7  0.00003
851.8  0.00003
851.9  0.00003
852.0  0.00003
852.1  0.00003
852.2  0.00003
852.3  0.00003
852.4  0.00003
852.5  0.00003
852.6  0.00003
852.7  0.00003
852.8  0.00003
852.9  0.00003
853.0  0.00003
853.1  0.00003
853.2  0.00003
853.3  0.00003
853.4  0.00003
853.5  0.00003
853.6  0.00003
853.7  0.00003
853.8  0.00003
853.9  0.00003
854.0  0.00003
854.1  0.00003
854.2  0.00003
854.3  0.00003
854.4  0.00003
854.5  0.00003
854.6  0.00003
854.7  0.00003
854.8  0.00003
854.9  0.00003
855.0  0.00003
855.1  0.00003
855.2  0.00003
855.3  0.00003
855.4  0.00003
855.5  0.00003
855.6  0.00003
855.7  0.00003
855.8  0.00003
855.9  0.00003
856.0  0.00003
856.1  0.00003
856.2  0.00003
856.3  0.00003
856.4  0.00003
856.5  0.00003
856.6  0.00003
856.7  0.00003
856.8  0.00003
856.9  0.00003
857.0  0.00003
857.1  0.00003
857.2  0.00003
857.3  0.00003
857.4  0.00003
857.5  0.00003
857.6  0.00003
857.7  0.00003
857.8  0.00003
857.9  0.00003
858.0  0.00003
858.1  0.00003
858.2  0.00003
858.3  0.00003
858.4  0.00003
858.5  0.00003
858.6  0.00003
858.7  0.00003
858.8  0.00003
858.9  0.00003
859.0  0.00003
859.1  0.00003
859.2  0.00003
859.3  0.00003
859.4  0.00003
859.5  0.00003
859.6  0.00003
859.7  0.00003
859.8  0.00003
859.9  0.00003
860.0  0.00003
860.1  0.00003
860.2  0.00003
860.3  0.00003
860.4  0.00003
860.5  0.00003
860.6  0.00003
860.7  0.00003
860.8  0.00003
860.9  0.00003
861.0  0.00003
861.1  0.00003
861.2  0.00003
861.3  0.00003
861.4  0.00003
861.5  0.00003
861.6  0.00003
861.7  0.00003
861.8  0.00003
861.9  0.00003
862.0  0.00003
862.1  0.00003
862.2  0.00003
862.3  0.00003
862.4  0.00003
862.5  0.00003
862.6  0.00003
862.7  0.00003
862.8  0.00003
862.9  0.00003
863.0  0.00003
863.1  0.00003
863.2  0.00003
863.3  0.00003
863.4  0.00003
863.5  0.00003
863.6  0.00003
863.7  0.00003
863.8  0.00003
863.9  0.00003
864.0  0.00003
864.1  0.00003
864.2  0.00003
864.3  0.00003
864.4  0.00003
864.5  0.00003
864.6  0.00003
864.7  0.00003
864.8  0.00003
864.9  0.00003
865.0  0.00003
865.1  0.00003
865.2  0.00003
865.3  0.00003
865.4  0.00003
865.5  0.00003
865.6  0.00003
865.7  0.00003
865.8  0.00002
865.9  0.00002
866.0  0.00002
866.1  0.00002
866.2  0.00002
866.3  0.00002
866.4  0.00002
866.5  0.00002
866.6  0.00002
866.7  0.00002
866.8  0.00002
866.9  0.00002
867.0  0.00002
867.1  0.00002
867.2  0.00002
867.3  0.00002
867.4  0.00002
867.5  0.00002
867.6  0.00002
867.7  0.00002
867.8  0.00002
867.9  0.00002
868.0  0.00002
868.1  0.00002
868.2  0.00002
868.3  0.00002
868.4  0.00002
868.5  0.00002
868.6  0.00002
868.7  0.00002
868.8  0.00002
868.9  0.00002
869.0  0.00002
869.1  0.00002
869.2  0.00002
869.3  0.00002
869.4  0.00002
869.5  0.00002
869.6  0.00002
869.7  0.00002
869.8  0.00002
869.9  0.00002
870.0  0.00002
870.1  0.00002
870.2  0.00002
870.3  0.00002
870.4  0.00002
870.5  0.00002
870.6  0.00002
870.7  0.00002
870.8  0.00002
870.9  0.00002
871.0  0.00002
871.1  0.00002
871.2  0.00002
871.3  0.00002
871.4  0.00002
871.5  0.00002
871.6  0.00002
871.7  0.00002
871.8  0.00002
871.9  0.00002
872.0  0.00002
872.1  0.00002
872.2  0.00002
872.3  0.00002
872.4  0.00002
872.5  0.00002
872.6  0.00002
872.7  0.00002
872.8  0.00002
872.9  0.00002
873.0  0.00002
873.1  0.00002
873.2  0.00002
873.3  0.00002
873.4  0.00002
873.5  0.00002
873.6  0.00002
873.7  0.00002
873.8  0.00002
873.9  0.00002
874.0  0.00002
874.1  0.00002
874.2  0.00002
874.3  0.00002
874.4  0.00002
874.5  0.00002
874.6  0.00002
874.7  0.00002
874.8  0.00002
874.9  0.00002
875.0  0.00002
875.1  0.00002
875.2  0.00002
875.3  0.00002
875.4  0.00002
875.5  0.00002
875.6  0.00002
875.7  0.00002
875.8  0.00002
875.9  0.00002
876.0  0.00002
876.1  0.00002
876.2  0.00002
876.3  0.00002
876.4  0.00002
876.5  0.00002
876.6  0.00002
876.7  0.00002
876.8  0.00002
876.9  0.00002
877.0  0.00002
877.1  0.00002
877.2  0.00002
877.3  0.00002
877.4  0.00002
877.5  0.00002
877.6  0.00002
877.7  0.00002
877.8  0.00002
877.9  0.00002
878.0  0.00002
878.1  0.00002
878.2  0.00002
878.3  0.00002
878.4  0.00002
878.5  0.00002
878.6  0.00002
878.7  0.00002
878.8  0.00002
878.9  0.00002
879.0  0.00002
879.1  0.00002
879.2  0.00002
879.3  0.00002
879.4  0.00002
879.5  0.00002
879.6  0.00002
879.7  0.00002
879.8  0.00002
879.9  0.00002
880.0  0.00002
880.1  0.00002
880.2  0.00002
880.3  0.00002
880.4  0.00002
880.5  0.00002
880.6  0.00002
880.7  0.00002
880.8  0.00002
880.9  0.00002
881.0  0.00002
881.1  0.00002
881.2  0.00002
881.3  0.00002
881.4  0.00002
881.5  0.00002
881.6  0.00002
881.7  0.00002
881.8  0.00002
881.9  0.00002
882.0  0.00002
882.1  0.00002
882.2  0.00002
882.3  0.00002
882.4  0.00002
882.5  0.00002
882.6  0.00002
882.7  0.00002
882.8  0.00002
882.9  0.00002
883.0  0.00002
883.1  0.00002
883.2  0.00003
883.3  0.00003
883.4  0.00003
883.5  0.00003
883.6  0.00003
883.7  0.00003
883.8  0.00003
883.9  0.00003
884.0  0.00003
884.1  0.00003
884.2  0.00003
884.3  0.00003
884.4  0.00003
884.5  0.00003
884.6  0.00003
884.7  0.00003
884.8  0.00003
884.9  0.00003
885.0  0.00003
885.1  0.00003
885.2  0.00003
885.3  0.00003
885.4  0.00003
885.5  0.00003
885.6  0.00003
885.7  0.00003
885.8  0.00003
885.9  0.00003
886.0  0.00003
886.1  0.00003
886.2  0.00003
886.3  0.00003
886.4  0.00003
886.5  0.00003
886.6  0.00003
886.7  0.00003
886.8  0.00003
886.9  0.00003
887.0  0.00003
887.1  0.00003
887.2  0.00003
887.3  0.00003
887.4  0.00003
887.5  0.00003
887.6  0.00003
887.7  0.00003
887.8  0.00003
887.9  0.00003
888.0  0.00003
888.1  0.00003
888.2  0.00003
888.3  0.00004
888.4  0.00004
888.5  0.00004
888.6  0.00004
888.7  0.00004
888.8  0.00004
888.9  0.00004
889.0  0.00004
889.1  0.00004
889.2  0.00004
889.3  0.00004
889.4  0.00004
889.5  0.00004
889.6  0.00004
889.7  0.00004
889.8  0.00004
889.9  0.00004
890.0  0.00004
890.1  0.00004
890.2  0.00004
890.3  0.00004
890.4  0.00004
890.5  0.00004
890.6  0.00004
890.7  0.00004
890.8  0.00004
890.9  0.00004
891.0  0.00004
891.1  0.00004
891.2  0.00004
891.3  0.00004
891.4  0.00004
891.5  0.00004
891.6  0.00005
891.7  0.00005
891.8  0.00005
891.9  0.00005
892.0  0.00005
892.1  0.00005
892.2  0.00005
892.3  0.00005
892.4  0.00005
892.5  0.00005
892.6  0.00005
892.7  0.00005
892.8  0.00005
892.9  0.00005
893.0  0.00005
893.1  0.00005
893.2  0.00005
893.3  0.00005
893.4  0.00005
893.5  0.00005
893.6  0.00005
893.7  0.00005
893.8  0.00005
893.9  0.00005
894.0  0.00005
894.1  0.00005
894.2  0.00005
894.3  0.00006
894.4  0.00006
894.5  0.00006
894.6  0.00006
894.7  0.00006
894.8  0.00006
894.9  0.00006
895.0  0.00006
895.1  0.00006
895.2  0.00006
895.3  0.00006
895.4  0.00006
895.5  0.00006
895.6  0.00006
895.7  0.00006
895.8  0.00006
895.9  0.00006
896.0  0.00006
896.1  0.00006
896.2  0.00006
896.3  0.00006
896.4  0.00006
896.5  0.00006
896.6  0.00006
896.7  0.00006
896.8  0.00006
896.9  0.00007
897.0  0.00007
897.1  0.00007
897.2  0.00007
897.3  0.00007
897.4  0.00007
897.5  0.00007
897.6  0.00007
897.7  0.00007
897.8  0.00007
897.9  0.00007
898.0  0.00007
898.1  0.00007
898.2  0.00007
898.3  0.00007
898.4  0.00007
898.5  0.00007
898.6  0.00007
898.7  0.00007
898.8  0.00007
898.9  0.00007
899.0  0.00007
899.1  0.00007
899.2  0.00007
899.3  0.00007
899.4  0.00007
899.5  0.00007
899.6  0.00008
899.7  0.00008
899.8  0.00008
899.9  0.00008
900.0  0.00008
900.1  0.00008
900.2  0.00008
900.3  0.00008
900.4  0.00008
900.5  0.00008
900.6  0.00008
900.7  0.00008
900.8  0.00008
900.9  0.00008
901.0  0.00008
901.1  0.00008
901.2  0.00008
901.3  0.00008
901.4  0.00008
901.5  0.00008
901.6  0.00008
901.7  0.00008
901.8  0.00008
901.9  0.00008
902.0  0.00008
902.1  0.00008
902.2  0.00008
902.3  0.00008
902.4  0.00008
902.5  0.00008
902.6  0.00008
902.7  0.00008
902.8  0.00008
902.9  0.00009
903.0  0.00009
903.1  0.00009
903.2  0.00009
903.3  0.00009
903.4  0.00009
903.5  0.00009
903.6  0.00009
903.7  0.00009
903.8  0.00009
903.9  0.00009
904.0  0.00009
904.1  0.00009
904.2  0.00009
904.3  0.00009
904.4  0.00009
904.5  0.00009
904.6  0.00009
904.7  0.00009
904.8  0.00009
904.9  0.00009
905.0  0.00009
905.1  0.00009
905.2  0.00009
905.3  0.00009
905.4  0.00009
905.5  0.00009
905.6  0.00009
905.7  0.00009
905.8  0.00009
905.9  0.00009
906.0  0.00009
906.1  0.00009
906.2  0.00009
906.3  0.00010
906.4  0.00010
906.5  0.00010
906.6  0.00010
906.7  0.00010
906.8  0.00010
906.9  0.00010
907.0  0.00010
907.1  0.00010
907.2  0.00010
907.3  0.00010
907.4  0.00010
907.5  0.00010
907.6  0.00010
907.7  0.00010
907.8  0.00010
907.9  0.00010
908.0  0.00010
908.1  0.00010
908.2  0.00010
908.3  0.00010
908.4  0.00010
908.5  0.00010
908.6  0.00010
908.7  0.00010
908.8  0.00010
908.9  0.00010
909.0  0.00010
909.1  0.00010
909.2  0.00011
909.3  0.00011
909.4  0.00011
909.5  0.00011
909.6  0.00011
909.7  0.00011
909.8  0.00011
909.9  0.00011
910.0  0.00011
910.1  0.00011
910.2  0.00011
910.3  0.00011
910.4  0.00011
910.5  0.00011
910.6  0.00011
910.7  0.00011
910.8  0.00011
910.9  0.00011
911.0  0.00011
911.1  0.00011
911.2  0.00011
911.3  0.00011
911.4  0.00012
911.5  0.00012
911.6  0.00012
911.7  0.00012
911.8  0.00012
911.9  0.00012
912.0  0.00012
912.1  0.00012
912.2  0.00012
912.3  0.00012
912.4  0.00012
912.5  0.00012
912.6  0.00012
912.7  0.00012
912.8  0.00012
912.9  0.00012
913.0  0.00013
913.1  0.00013
913.2  0.00013
913.3  0.00013
913.4  0.00013
913.5  0.00013
913.6  0.00013
913.7  0.00013
913.8  0.00013
913.9  0.00013
914.0  0.00013
914.1  0.00013
914.2  0.00013
914.3  0.00013
914.4  0.00014
914.5  0.00014
914.6  0.00014
914.7  0.00014
914.8  0.00014
914.9  0.00014
915.0  0.00014
915.1  0.00014
915.2  0.00014
915.3  0.00014
915.4  0.00014
915.5  0.00014
915.6  0.00015
915.7  0.00015
915.8  0.00015
915.9  0.00015
916.0  0.00015
916.1  0.00015
916.2  0.00015
916.3  0.00015
916.4  0.00015
916.5  0.00015
916.6  0.00016
916.7  0.00016
916.8  0.00016
916.9  0.00016
917.0  0.00016
917.1  0.00016
917.2  0.00016
917.3  0.00016
917.4  0.00017
917.5  0.00017
917.6  0.00017
917.7  0.00017
917.8  0.00017
917.9  0.00017
918.0  0.00017
918.1  0.00017
918.2  0.00018
918.3  0.00018
918.4  0.00018
918.5  0.00018
918.6  0.00018
918.7  0.00018
918.8  0.00018
918.9  0.00019
919.0  0.00019
919.1  0.00019
919.2  0.00019
919.3  0.00019
919.4  0.00019
919.5  0.00019
919.6  0.00020
919.7  0.00020
919.8  0.00020
919.9  0.00020
920.0  0.00020
920.1  0.00020
920.2  0.00021
920.3  0.00021
920.4  0.00021
920.5  0.00021
920.6  0.00021
920.7  0.00021
920.8  0.00022
920.9  0.00022
921.0  0.00022
921.1  0.00022
921.2  0.00022
921.3  0.00023
921.4  0.00023
921.5  0.00023
921.6  0.00023
921.7  0.00023
921.8  0.00024
921.9  0.00024
922.0  0.00024
922.1  0.00024
922.2  0.00024
922.3  0.00025
922.4  0.00025
922.5  0.00025
922.6  0.00025
922.7  0.00026
922.8  0.00026
922.9  0.00026
923.0  0.00026
923.1  0.00027
923.2  0.00027
923.3  0.00027
923.4  0.00027
923.5  0.00028
923.6  0.00028
923.7  0.00028
923.8  0.00028
923.9  0.00029
924.0  0.00029
924.1  0.00029
924.2  0.00029
924.3  0.00030
924.4  0.00030
924.5  0.00030
924.6  0.00031
924.7  0.00031
924.8  0.00031
924.9  0.00031
925.0  0.00032
925.1  0.00032
925.2  0.00032
925.3  0.00033
925.4  0.00033
925.5  0.00033
925.6  0.00034
925.7  0.00034
925.8  0.00034
925.9  0.00034
926.0  0.00035
926.1  0.00035
926.2  0.00035
926.3  0.00036
926.4  0.00036
926.5  0.00036
926.6  0.00037
926.7  0.00037
926.8  0.00038
926.9  0.00038
927.0  0.00038
927.1  0.00039
927.2  0.00039
927.3  0.00039
927.4  0.00040
927.5  0.00040
927.6  0.00040
927.7  0.00041
927.8  0.00041
927.9  0.00041
928.0  0.00042
928.1  0.00042
928.2  0.00043
928.3  0.00043
928.4  0.00043
928.5  0.00044
928.6  0.00044
928.7  0.00045
928.8  0.00045
928.9  0.00045
929.0  0.00046
929.1  0.00046
929.2  0.00046
929.3  0.00047
929.4  0.00047
929.5  0.00048
929.6  0.00048
929.7  0.00049
929.8  0.00049
929.9  0.00049
930.0  0.00050
930.1  0.00050
930.2  0.00051
930.3  0.00051
930.4  0.00051
930.5  0.00052
930.6  0.00052
930.7  0.00053
930.8  0.00053
930.9  0.00053
931.0  0.00054
931.1  0.00054
931.2  0.00055
931.3  0.00055
931.4  0.00055
931.5  0.00056
931.6  0.00056
931.7  0.00057
931.8  0.00057
931.9  0.00057
932.0  0.00058
932.1  0.00058
932.2  0.00059
932.3  0.00059
932.4  0.00059
932.5  0.00060
932.6  0.00060
932.7  0.00061
932.8  0.00061
932.9  0.00061
933.0  0.00062
933.1  0.00062
933.2  0.00062
933.3  0.00063
933.4  0.00063
933.5  0.00064
933.6  0.00064
933.7  0.00064
933.8  0.00065
933.9  0.00065
934.0  0.00065
934.1  0.00066
934.2  0.00066
934.3  0.00066
934.4  0.00067
934.5  0.00067
934.6  0.00067
934.7  0.00068
934.8  0.00068
934.9  0.00068
935.0  0.00068
935.1  0.00069
935.2  0.00069
935.3  0.00069
935.4  0.00070
935.5  0.00070
935.6  0.00070
935.7  0.00070
935.8  0.00071
935.9  0.00071
936.0  0.00071
936.1  0.00071
936.2  0.00072
936.3  0.00072
936.4  0.00072
936.5  0.00072
936.6  0.00072
936.7  0.00073
936.8  0.00073
936.9  0.00073
937.0  0.00073
937.1  0.00073
937.2  0.00073
937.3  0.00074
937.4  0.00074
937.5  0.00074
937.6  0.00074
937.7  0.00074
937.8  0.00074
937.9  0.00074
938.0  0.00074
938.1  0.00074
938.2  0.00075
938.3  0.00075
938.4  0.00075
938.5  0.00075
938.6  0.00075
938.7  0.00075
938.8  0.00075
938.9  0.00075
939.0  0.00075
939.1  0.00075
939.2  0.00075
939.3  0.00075
939.4  0.00075
939.5  0.00075
939.6  0.00075
939.7  0.00075
939.8  0.00075
939.9  0.00075
940.0  0.00075
940.1  0.00075
940.2  0.00075
940.3  0.00075
940.4  0.00075
940.5  0.00075
940.6  0.00075
940.7  0.00075
940.8  0.00075
940.9  0.00075
941.0  0.00074
941.1  0.00074
941.2  0.00074
941.3  0.00074
941.4  0.00074
941.5  0.00074
941.6  0.00074
941.7  0.00074
941.8  0.00074
941.9  0.00074
942.0  0.00073
942.1  0.00073
942.2  0.00073
942.3  0.00073
942.4  0.00073
942.5  0.00073
942.6  0.00073
942.7  0.00073
942.8  0.00072
942.9  0.00072
943.0  0.00072
943.1  0.00072
943.2  0.00072
943.3  0.00072
943.4  0.00072
943.5  0.00071
943.6  0.00071
943.7  0.00071
943.8  0.00071
943.9  0.00071
944.0  0.00071
944.1  0.00070
944.2  0.00070
944.3  0.00070
944.4  0.00070
944.5  0.00070
944.6  0.00070
944.7  0.00069
944.8  0.00069
944.9  0.00069
945.0  0.00069
945.1  0.00069
945.2  0.00069
945.3  0.00068
945.4  0.00068
945.5  0.00068
945.6  0.00068
945.7  0.00068
945.8  0.00068
945.9  0.00067
946.0  0.00067
946.1  0.00067
946.2  0.00067
946.3  0.00067
946.4  0.00067
946.5  0.00067
946.6  0.00066
946.7  0.00066
946.8  0.00066
946.9  0.00066
947.0  0.00066
947.1  0.00066
947.2  0.00065
947.3  0.00065
947.4  0.00065
947.5  0.00065
947.6  0.00065
947.7  0.00065
947.8  0.00064
947.9  0.00064
948.0  0.00064
948.1  0.00064
948.2  0.00064
948.3  0.00064
948.4  0.00064
948.5  0.00063
948.6  0.00063
948.7  0.00063
948.8  0.00063
948.9  0.00063
949.0  0.00063
949.1  0.00063
949.2  0.00063
949.3  0.00062
949.4  0.00062
949.5  0.00062
949.6  0.00062
949.7  0.00062
949.8  0.00062
949.9  0.00062
950.0  0.00062
950.1  0.00061
950.2  0.00061
950.3  0.00061
950.4  0.00061
950.5  0.00061
950.6  0.00061
950.7  0.00061
950.8  0.00061
950.9  0.00060
951.0  0.00060
951.1  0.00060
951.2  0.00060
951.3  0.00060
951.4  0.00060
951.5  0.00060
951.6  0.00060
951.7  0.00060
951.8  0.00059
951.9  0.00059
952.0  0.00059
952.1  0.00059
952.2  0.00059
952.3  0.00059
952.4  0.00059
952.5  0.00059
952.6  0.00059
952.7  0.00059
952.8  0.00058
952.9  0.00058
953.0  0.00058
953.1  0.00058
953.2  0.00058
953.3  0.00058
953.4  0.00058
953.5  0.00058
953.6  0.00057
953.7  0.00057
953.8  0.00057
953.9  0.00057
954.0  0.00057
954.1  0.00057
954.2  0.00057
954.3  0.00057
954.4  0.00056
954.5  0.00056
954.6  0.00056
954.7  0.00056
954.8  0.00056
954.9  0.00056
955.0  0.00056
955.1  0.00055
955.2  0.00055
955.3  0.00055
955.4  0.00055
955.5  0.00055
955.6  0.00055
955.7  0.00054
955.8  0.00054
955.9  0.00054
956.0  0.00054
956.1  0.00054
956.2  0.00053
956.3  0.00053
956.4  0.00053
956.5  0.00053
956.6  0.00053
956.7  0.00052
956.8  0.00052
956.9  0.00052
957.0  0.00052
957.1  0.00051
957.2  0.00051
957.3  0.00051
957.4  0.00051
957.5  0.00050
957.6  0.00050
957.7  0.00050
957.8  0.00050
957.9  0.00049
958.0  0.00049
958.1  0.00049
958.2  0.00048
958.3  0.00048
958.4  0.00048
958.5  0.00047
958.6  0.00047
958.7  0.00047
958.8  0.00046
958.9  0.00046
959.0  0.00046
959.1  0.00045
959.2  0.00045
959.3  0.00045
959.4  0.00044
959.5  0.00044
959.6  0.00044
959.7  0.00043
959.8  0.00043
959.9  0.00042
960.0  0.00042
960.1  0.00042
960.2  0.00041
960.3  0.00041
960.4  0.00041
960.5  0.00040
960.6  0.00040
960.7  0.00039
960.8  0.00039
960.9  0.00038
961.0  0.00038
961.1  0.00038
961.2  0.00037
961.3  0.00037
961.4  0.00036
961.5  0.00036
961.6  0.00036
961.7  0.00035
961.8  0.00035
961.9  0.00034
962.0  0.00034
962.1  0.00033
962.2  0.00033
962.3  0.00033
962.4  0.00032
962.5  0.00032
962.6  0.00031
962.7  0.00031
962.8  0.00031
962.9  0.00030
963.0  0.00030
963.1  0.00029
963.2  0.00029
963.3  0.00029
963.4  0.00028
963.5  0.00028
963.6  0.00027
963.7  0.00027
963.8  0.00027
963.9  0.00026
964.0  0.00026
964.1  0.00026
964.2  0.00025
964.3  0.00025
964.4  0.00024
964.5  0.00024
964.6  0.00024
964.7  0.00023
964.8  0.00023
964.9  0.00023
965.0  0.00022
965.1  0.00022
965.2  0.00022
965.3  0.00021
965.4  0.00021
965.5  0.00021
965.6  0.00020
965.7  0.00020
965.8  0.00020
965.9  0.00020
966.0  0.00019
966.1  0.00019
966.2  0.00019
966.3  0.00018
966.4  0.00018
966.5  0.00018
966.6  0.00018
966.7  0.00017
966.8  0.00017
966.9  0.00017
967.0  0.00016
967.1  0.00016
967.2  0.00016
967.3  0.00016
967.4  0.00016
967.5  0.00015
967.6  0.00015
967.7  0.00015
967.8  0.00015
967.9  0.00014
968.0  0.00014
968.1  0.00014
968.2  0.00014
968.3  0.00014
968.4  0.00013
968.5  0.00013
968.6  0.00013
968.7  0.00013
968.8  0.00013
968.9  0.00012
969.0  0.00012
969.1  0.00012
969.2  0.00012
969.3  0.00012
969.4  0.00011
969.5  0.00011
969.6  0.00011
969.7  0.00011
969.8  0.00011
969.9  0.00011
970.0  0.00011
970.1  0.00010
970.2  0.00010
970.3  0.00010
970.4  0.00010
970.5  0.00010
970.6  0.00010
970.7  0.00010
970.8  0.00009
970.9  0.00009
971.0  0.00009
971.1  0.00009
971.2  0.00009
971.3  0.00009
971.4  0.00009
971.5  0.00009
971.6  0.00008
971.7  0.00008
971.8  0.00008
971.9  0.00008
972.0  0.00008
972.1  0.00008
972.2  0.00008
972.3  0.00008
972.4  0.00008
972.5  0.00007
972.6  0.00007
972.7  0.00007
972.8  0.00007
972.9  0.00007
973.0  0.00007
973.1  0.00007
973.2  0.00007
973.3  0.00007
973.4  0.00007
973.5  0.00007
973.6  0.00006
973.7  0.00006
973.8  0.00006
973.9  0.00006
974.0  0.00006
974.1  0.00006
974.2  0.00006
974.3  0.00006
974.4  0.00006
974.5  0.00006
974.6  0.00006
974.7  0.00006
974.8  0.00006
974.9  0.00006
975.0  0.00005
975.1  0.00005
975.2  0.00005
975.3  0.00005
975.4  0.00005
975.5  0.00005
975.6  0.00005
975.7  0.00005
975.8  0.00005
975.9  0.00005
976.0  0.00005
976.1  0.00005
976.2  0.00005
976.3  0.00005
976.4  0.00005
976.5  0.00005
976.6  0.00005
976.7  0.00005
976.8  0.00005
976.9  0.00004
977.0  0.00004
977.1  0.00004
977.2  0.00004
977.3  0.00004
977.4  0.00004
977.5  0.00004
977.6  0.00004
977.7  0.00004
977.8  0.00004
977.9  0.00004
978.0  0.00004
978.1  0.00004
978.2  0.00004
978.3  0.00004
978.4  0.00004
978.5  0.00004
978.6  0.00004
978.7  0.00004
978.8  0.00004
978.9  0.00004
979.0  0.00004
979.1  0.00004
979.2  0.00004
979.3  0.00004
979.4  0.00004
979.5  0.00004
979.6  0.00004
979.7  0.00003
979.8  0.00003
979.9  0.00003
980.0  0.00003
980.1  0.00003
980.2  0.00003
980.3  0.00003
980.4  0.00003
980.5  0.00003
980.6  0.00003
980.7  0.00003
980.8  0.00003
980.9  0.00003
981.0  0.00003
981.1  0.00003
981.2  0.00003
981.3  0.00003
981.4  0.00003
981.5  0.00003
981.6  0.00003
981.7  0.00003
981.8  0.00003
981.9  0.00003
982.0  0.00003
982.1  0.00003
982.2  0.00003
982.3  0.00003
982.4  0.00003
982.5  0.00003
982.6  0.00003
982.7  0.00003
982.8  0.00003
982.9  0.00003
983.0  0.00003
983.1  0.00003
983.2  0.00003
983.3  0.00003
983.4  0.00003
983.5  0.00003
983.6  0.00003
983.7  0.00003
983.8  0.00003
983.9  0.00003
984.0  0.00003
984.1  0.00003
984.2  0.00003
984.3  0.00003
984.4  0.00003
984.5  0.00003
984.6  0.00003
984.7  0.00002
984.8  0.00002
984.9  0.00002
985.0  0.00002
985.1  0.00002
985.2  0.00002
985.3  0.00002
985.4  0.00002
985.5  0.00002
985.6  0.00002
985.7  0.00002
985.8  0.00002
985.9  0.00002
986.0  0.00002
986.1  0.00002
986.2  0.00002
986.3  0.00002
986.4  0.00002
986.5  0.00002
986.6  0.00002
986.7  0.00002
986.8  0.00002
986.9  0.00002
987.0  0.00002
987.1  0.00002
987.2  0.00002
987.3  0.00002
987.4  0.00002
987.5  0.00002
987.6  0.00002
987.7  0.00002
987.8  0.00002
987.9  0.00002
988.0  0.00002
988.1  0.00002
988.2  0.00002
988.3  0.00002
988.4  0.00002
988.5  0.00002
988.6  0.00002
988.7  0.00002
988.8  0.00002
988.9  0.00002
989.0  0.00002
989.1  0.00002
989.2  0.00002
989.3  0.00002
989.4  0.00002
989.5  0.00002
989.6  0.00002
989.7  0.00002
989.8  0.00002
989.9  0.00002
990.0  0.00002
990.1  0.00002
990.2  0.00002
990.3  0.00002
990.4  0.00002
990.5  0.00002
990.6  0.00002
990.7  0.00002
990.8  0.00002
990.9  0.00002
991.0  0.00002
991.1  0.00002
991.2  0.00002
991.3  0.00002
991.4  0.00002
991.5  0.00002
991.6  0.00002
991.7  0.00002
991.8  0.00002
991.9  0.00002
992.0  0.00002
992.1  0.00002
992.2  0.00002
992.3  0.00002
992.4  0.00002
992.5  0.00002
992.6  0.00002
992.7  0.00002
992.8  0.00002
992.9  0.00002
993.0  0.00002
993.1  0.00002
993.2  0.00002
993.3  0.00002
993.4  0.00002
993.5  0.00002
993.6  0.00002
993.7  0.00002
993.8  0.00002
993.9  0.00002
994.0  0.00002
994.1  0.00002
994.2  0.00002
994.3  0.00002
994.4  0.00002
994.5  0.00002
994.6  0.00002
994.7  0.00002
994.8  0.00002
994.9  0.00002
995.0  0.00002
995.1  0.00002
995.2  0.00002
995.3  0.00002
995.4  0.00002
995.5  0.00002
995.6  0.00002
995.7  0.00002
995.8  0.00002
995.9  0.00002
996.0  0.00002
996.1  0.00002
996.2  0.00002
996.3  0.00002
996.4  0.00002
996.5  0.00002
996.6  0.00002
996.7  0.00002
996.8  0.00002
996.9  0.00002
997.0  0.00002
997.1  0.00002
997.2  0.00002
997.3  0.00002
997.4  0.00002
997.5  0.00002
997.6  0.00002
997.7  0.00002
997.8  0.00002
997.9  0.00002
998.0  0.00002
998.1  0.00002
998.2  0.00002
998.3  0.00002
998.4  0.00002
998.5  0.00002
998.6  0.00002
998.7  0.00002
998.8  0.00002
998.9  0.00002
999.0  0.00002
999.1  0.00002
999.2  0.00002
999.3  0.00002
999.4  0.00002
999.5  0.00002
999.6  0.00002
999.7  0.00002
999.8  0.00002
999.9  0.00002
1000.0  0.00002
1000.1  0.00002
1000.2  0.00002
1000.3  0.00002
1000.4  0.00002
1000.5  0.00002
1000.6  0.00002
1000.7  0.00002
1000.8  0.00002
1000.9  0.00002
1001.0  0.00002
1001.1  0.00002
1001.2  0.00002
1001.3  0.00002
1001.4  0.00002
1001.5  0.00002
1001.6  0.00002
1001.7  0.00002
1001.8  0.00002
1001.9  0.00002
1002.0  0.00002
1002.1  0.00002
1002.2  0.00002
1002.3  0.00002
1002.4  0.00002
1002.5  0.00002
1002.6  0.00002
1002.7  0.00002
1002.8  0.00002
1002.9  0.00002
1003.0  0.00003
1003.1  0.00003
1003.2  0.00003
1003.3  0.00003
1003.4  0.00003
1003.5  0.00003
1003.6  0.00003
1003.7  0.00003
1003.8  0.00003
1003.9  0.00003
1004.0  0.00003
1004.1  0.00003
1004.2  0.00003
1004.3  0.00003
1004.4  0.00003
1004.5  0.00003
1004.6  0.00003
1004.7  0.00003
1004.8  0.00003
1004.9  0.00003
1005.0  0.00003
1005.1  0.00003
1005.2  0.00003
1005.3  0.00003
1005.4  0.00003
1005.5  0.00003
1005.6  0.00003
1005.7  0.00003
1005.8  0.00003
1005.9  0.00003
1006.0  0.00003
1006.1  0.00003
1006.2  0.00003
1006.3  0.00003
1006.4  0.00003
1006.5  0.00003
1006.6  0.00003
1006.7  0.00003
1006.8  0.00003
1006.9  0.00003
1007.0  0.00003
1007.1  0.00003
1007.2  0.00003
1007.3  0.00003
1007.4  0.00003
1007.5  0.00003
1007.6  0.00003
1007.7  0.00003
1007.8  0.00003
1007.9  0.00003
1008.0  0.00003
1008.1  0.00003
1008.2  0.00003
1008.3  0.00003
1008.4  0.00003
1008.5  0.00003
1008.6  0.00003
1008.7  0.00004
1008.8  0.00004
1008.9  0.00004
1009.0  0.00004
1009.1  0.00004
1009.2  0.00004
1009.3  0.00004
1009.4  0.00004
1009.5  0.00004
1009.6  0.00004
1009.7  0.00004
1009.8  0.00004
1009.9  0.00004
1010.0  0.00004
1010.1  0.00004
1010.2  0.00004
1010.3  0.00004
1010.4  0.00004
1010.5  0.00004
1010.6  0.00004
1010.7  0.00004
1010.8  0.00004
1010.9  0.00004
1011.0  0.00004
1011.1  0.00004
1011.2  0.00004
1011.3  0.00004
1011.4  0.00004
1011.5  0.00004
1011.6  0.00004
1011.7  0.00004
1011.8  0.00004
1011.9  0.00004
1012.0  0.00005
1012.1  0.00005
1012.2  0.00005
1012.3  0.00005
1012.4  0.00005
1012.5  0.00005
1012.6  0.00005
1012.7  0.00005
1012.8  0.00005
1012.9  0.00005
1013.0  0.00005
1013.1  0.00005
1013.2  0.00005
1013.3  0.00005
1013.4  0.00005
1013.5  0.00005
1013.6  0.00005
1013.7  0.00005
1013.8  0.00005
1013.9  0.00005
1014.0  0.00005
1014.1  0.00005
1014.2  0.00005
1014.3  0.00006
1014.4  0.00006
1014.5  0.00006
1014.6  0.00006
1014.7  0.00006
1014.8  0.00006
1014.9  0.00006
1015.0  0.00006
1015.1  0.00006
1015.2  0.00006
1015.3  0.00006
1015.4  0.00006
1015.5  0.00006
1015.6  0.00006
1015.7  0.00006
1015.8  0.00006
1015.9  0.00006
1016.0  0.00006
1016.1  0.00006
1016.2  0.00007
1016.3  0.00007
1016.4  0.00007
1016.5  0.00007
1016.6  0.00007
1016.7  0.00007
1016.8  0.00007
1016.9  0.00007
1017.0  0.00007
1017.1  0.00007
1017.2  0.00007
1017.3  0.00007
1017.4  0.00007
1017.5  0.00007
1017.6  0.00007
1017.7  0.00008
1017.8  0.00008
1017.9  0.00008
1018.0  0.00008
1018.1  0.00008
1018.2  0.00008
1018.3  0.00008
1018.4  0.00008
1018.5  0.00008
1018.6  0.00008
1018.7  0.00008
1018.8  0.00008
1018.9  0.00008
1019.0  0.00008
1019.1  0.00009
1019.2  0.00009
1019.3  0.00009
1019.4  0.00009
1019.5  0.00009
1019.6  0.00009
1019.7  0.00009
1019.8  0.00009
1019.9  0.00009
1020.0  0.00009
1020.1  0.00009
1020.2  0.00009
1020.3  0.00009
1020.4  0.00009
1020.5  0.00010
1020.6  0.00010
1020.7  0.00010
1020.8  0.00010
1020.9  0.00010
1021.0  0.00010
1021.1  0.00010
1021.2  0.00010
1021.3  0.00010
1021.4  0.00010
1021.5  0.00010
1021.6  0.00010
1021.7  0.00011
1021.8  0.00011
1021.9  0.00011
1022.0  0.00011
1022.1  0.00011
1022.2  0.00011
1022.3  0.00011
1022.4  0.00011
1022.5  0.00011
1022.6  0.00011
1022.7  0.00011
1022.8  0.00011
1022.9  0.00011
1023.0  0.00011
1023.1  0.00012
1023.2  0.00012
1023.3  0.00012
1023.4  0.00012
1023.5  0.00012
1023.6  0.00012
1023.7  0.00012
1023.8  0.00012
1023.9  0.00012
1024.0  0.00012
1024.1  0.00012
1024.2  0.00012
1024.3  0.00012
1024.4  0.00012
1024.5  0.00012
1024.6  0.00013
1024.7  0.00013
1024.8  0.00013
1024.9  0.00013
1025.0  0.00013
1025.1  0.00013
1025.2  0.00013
1025.3  0.00013
1025.4  0.00013
1025.5  0.00013
1025.6  0.00013
1025.7  0.00013
1025.8  0.00013
1025.9  0.00013
1026.0  0.00013
1026.1  0.00013
1026.2  0.00013
1026.3  0.00013
1026.4  0.00013
1026.5  0.00013
1026.6  0.00014
1026.7  0.00014
1026.8  0.00014
1026.9  0.00014
1027.0  0.00014
1027.1  0.00014
1027.2  0.00014
1027.3  0.00014
1027.4  0.00014
1027.5  0.00014
1027.6  0.00014
1027.7  0.00014
1027.8  0.00014
1027.9  0.00014
1028.0  0.00014
1028.1  0.00014
1028.2  0.00014
1028.3  0.00014
1028.4  0.00014
1028.5  0.00014
1028.6  0.00014
1028.7  0.00014
1028.8  0.00014
1028.9  0.00014
1029.0  0.00014
1029.1  0.00014
1029.2  0.00014
1029.3  0.00014
1029.4  0.00014
1029.5  0.00014
1029.6  0.00014
1029.7  0.00014
1029.8  0.00014
1029.9  0.00014
1030.0  0.00014
1030.1  0.00014
1030.2  0.00014
1030.3  0.00014
1030.4  0.00014
1030.5  0.00014
1030.6  0.00014
1030.7  0.00014
1030.8  0.00014
1030.9  0.00014
1031.0  0.00014
1031.1  0.00014
1031.2  0.00014
1031.3  0.00014
1031.4  0.00014
1031.5  0.00014
1031.6  0.00014
1031.7  0.00014
1031.8  0.00014
1031.9  0.00014
1032.0  0.00014
1032.1  0.00014
1032.2  0.00014
1032.3  0.00014
1032.4  0.00014
1032.5  0.00014
1032.6  0.00014
1032.7  0.00013
1032.8  0.00013
1032.9  0.00013
1033.0  0.00013
1033.1  0.00013
1033.2  0.00013
1033.3  0.00013
1033.4  0.00013
1033.5  0.00013
1033.6  0.00013
1033.7  0.00013
1033.8  0.00013
1033.9  0.00013
1034.0  0.00013
1034.1  0.00013
1034.2  0.00013
1034.3  0.00013
1034.4  0.00013
1034.5  0.00013
1034.6  0.00013
1034.7  0.00013
1034.8  0.00013
1034.9  0.00013
1035.0  0.00013
1035.1  0.00013
1035.2  0.00013
1035.3  0.00013
1035.4  0.00013
1035.5  0.00013
1035.6  0.00013
1035.7  0.00013
1035.8  0.00013
1035.9  0.00013
1036.0  0.00013
1036.1  0.00013
1036.2  0.00013
1036.3  0.00012
1036.4  0.00012
1036.5  0.00012
1036.6  0.00012
1036.7  0.00012
1036.8  0.00012
1036.9  0.00012
1037.0  0.00012
1037.1  0.00012
1037.2  0.00012
1037.3  0.00012
1037.4  0.00012
1037.5  0.00012
1037.6  0.00012
1037.7  0.00012
1037.8  0.00012
1037.9  0.00012
1038.0  0.00012
1038.1  0.00012
1038.2  0.00012
1038.3  0.00012
1038.4  0.00012
1038.5  0.00012
1038.6  0.00012
1038.7  0.00012
1038.8  0.00012
1038.9  0.00012
1039.0  0.00012
1039.1  0.00012
1039.2  0.00012
1039.3  0.00012
1039.4  0.00012
1039.5  0.00012
1039.6  0.00012
1039.7  0.00012
1039.8  0.00012
1039.9  0.00012
1040.0  0.00012
1040.1  0.00012
1040.2  0.00012
1040.3  0.00012
1040.4  0.00012
1040.5  0.00012
1040.6  0.00012
1040.7  0.00012
1040.8  0.00012
1040.9  0.00011
1041.0  0.00011
1041.1  0.00011
1041.2  0.00011
1041.3  0.00011
1041.4  0.00011
1041.5  0.00011
1041.6  0.00011
1041.7  0.00011
1041.8  0.00011
1041.9  0.00011
1042.0  0.00011
1042.1  0.00011
1042.2  0.00011
1042.3  0.00011
1042.4  0.00011
1042.5  0.00011
1042.6  0.00011
1042.7  0.00011
1042.8  0.00011
1042.9  0.00011
1043.0  0.00011
1043.1  0.00011
1043.2  0.00011
1043.3  0.00011
1043.4  0.00011
1043.5  0.00011
1043.6  0.00011
1043.7  0.00011
1043.8  0.00011
1043.9  0.00011
1044.0  0.00011
1044.1  0.00011
1044.2  0.00011
1044.3  0.00011
1044.4  0.00011
1044.5  0.00011
1044.6  0.00011
1044.7  0.00011
1044.8  0.00011
1044.9  0.00011
1045.0  0.00011
1045.1  0.00011
1045.2  0.00011
1045.3  0.00011
1045.4  0.00011
1045.5  0.00011
1045.6  0.00011
1045.7  0.00011
1045.8  0.00011
1045.9  0.00011
1046.0  0.00011
1046.1  0.00011
1046.2  0.00011
1046.3  0.00011
1046.4  0.00011
1046.5  0.00011
1046.6  0.00011
1046.7  0.00011
1046.8  0.00011
1046.9  0.00011
1047.0  0.00011
1047.1  0.00011
1047.2  0.00011
1047.3  0.00011
1047.4  0.00011
1047.5  0.00011
1047.6  0.00011
1047.7  0.00011
1047.8  0.00011
1047.9  0.00011
1048.0  0.00011
1048.1  0.00011
1048.2  0.00011
1048.3  0.00011
1048.4  0.00011
1048.5  0.00011
1048.6  0.00011
1048.7  0.00011
1048.8  0.00011
1048.9  0.00011
1049.0  0.00011
1049.1  0.00011
1049.2  0.00011
1049.3  0.00011
1049.4  0.00011
1049.5  0.00011
1049.6  0.00011
1049.7  0.00011
1049.8  0.00011
1049.9  0.00011
1050.0  0.00011
1050.1  0.00011
1050.2  0.00011
1050.3  0.00011
1050.4  0.00011
1050.5  0.00011
1050.6  0.00011
1050.7  0.00011
1050.8  0.00011
1050.9  0.00011
1051.0  0.00011
1051.1  0.00011
1051.2  0.00011
1051.3  0.00011
1051.4  0.00011
1051.5  0.00011
1051.6  0.00011
1051.7  0.00011
1051.8  0.00011
1051.9  0.00011
1052.0  0.00011
1052.1  0.00011
1052.2  0.00011
1052.3  0.00011
1052.4  0.00011
1052.5  0.00011
1052.6  0.00011
1052.7  0.00011
1052.8  0.00011
1052.9  0.00011
1053.0  0.00011
1053.1  0.00011
1053.2  0.00011
1053.3  0.00011
1053.4  0.00011
1053.5  0.00011
1053.6  0.00011
1053.7  0.00011
1053.8  0.00011
1053.9  0.00011
1054.0  0.00011
1054.1  0.00011
1054.2  0.00011
1054.3  0.00011
1054.4  0.00011
1054.5  0.00011
1054.6  0.00011
1054.7  0.00011
1054.8  0.00011
1054.9  0.00011
1055.0  0.00011
1055.1  0.00011
1055.2  0.00011
1055.3  0.00011
1055.4  0.00011
1055.5  0.00011
1055.6  0.00011
1055.7  0.00011
1055.8  0.00011
1055.9  0.00011
1056.0  0.00011
1056.1  0.00011
1056.2  0.00011
1056.3  0.00011
1056.4  0.00011
1056.5  0.00011
1056.6  0.00011
1056.7  0.00011
1056.8  0.00011
1056.9  0.00011
1057.0  0.00011
1057.1  0.00011
1057.2  0.00011
1057.3  0.00011
1057.4  0.00011
1057.5  0.00011
1057.6  0.00011
1057.7  0.00011
1057.8  0.00011
1057.9  0.00011
1058.0  0.00011
1058.1  0.00011
1058.2  0.00011
1058.3  0.00011
1058.4  0.00011
1058.5  0.00011
1058.6  0.00011
1058.7  0.00011
1058.8  0.00011
1058.9  0.00011
1059.0  0.00011
1059.1  0.00011
1059.2  0.00011
1059.3  0.00011
1059.4  0.00011
1059.5  0.00011
1059.6  0.00011
1059.7  0.00011
1059.8  0.00011
1059.9  0.00011
1060.0  0.00011
1060.1  0.00011
1060.2  0.00011
1060.3  0.00011
1060.4  0.00011
1060.5  0.00011
1060.6  0.00011
1060.7  0.00011
1060.8  0.00011
1060.9  0.00011
1061.0  0.00010
1061.1  0.00010
1061.2  0.00010
1061.3  0.00010
1061.4  0.00010
1061.5  0.00010
1061.6  0.00010
1061.7  0.00010
1061.8  0.00010
1061.9  0.00010
1062.0  0.00010
1062.1  0.00010
1062.2  0.00010
1062.3  0.00010
1062.4  0.00010
1062.5  0.00010
1062.6  0.00010
1062.7  0.00010
1062.8  0.00010
1062.9  0.00010
1063.0  0.00010
1063.1  0.00010
1063.2  0.00010
1063.3  0.00010
1063.4  0.00010
1063.5  0.00010
1063.6  0.00010
1063.7  0.00010
1063.8  0.00010
1063.9  0.00010
1064.0  0.00010
1064.1  0.00010
1064.2  0.00010
1064.3  0.00010
1064.4  0.00010
1064.5  0.00010
1064.6  0.00010
1064.7  0.00010
1064.8  0.00010
1064.9  0.00010
1065.0  0.00009
1065.1  0.00009
1065.2  0.00009
1065.3  0.00009
1065.4  0.00009
1065.5  0.00009
1065.6  0.00009
1065.7  0.00009
1065.8  0.00009
1065.9  0.00009
1066.0  0.00009
1066.1  0.00009
1066.2  0.00009
1066.3  0.00009
1066.4  0.00009
1066.5  0.00009
1066.6  0.00009
1066.7  0.00009
1066.8  0.00009
1066.9  0.00009
1067.0  0.00009
1067.1  0.00009
1067.2  0.00009
1067.3  0.00009
1067.4  0.00009
1067.5  0.00009
1067.6  0.00009
1067.7  0.00009
1067.8  0.00009
1067.9  0.00009
1068.0  0.00009
1068.1  0.00009
1068.2  0.00009
1068.3  0.00009
1068.4  0.00009
1068.5  0.00009
1068.6  0.00009
1068.7  0.00009
1068.8  0.00009
1068.9  0.00008
1069.0  0.00008
1069.1  0.00008
1069.2  0.00008
1069.3  0.00008
1069.4  0.00008
1069.5  0.00008
1069.6  0.00008
1069.7  0.00008
1069.8  0.00008
1069.9  0.00008
1070.0  0.00008
1070.1  0.00008
1070.2  0.00008
1070.3  0.00008
1070.4  0.00008
1070.5  0.00008
1070.6  0.00008
1070.7  0.00008
1070.8  0.00008
1070.9  0.00008
1071.0  0.00008
1071.1  0.00008
1071.2  0.00008
1071.3  0.00008
1071.4  0.00008
1071.5  0.00008
1071.6  0.00008
1071.7  0.00008
1071.8  0.00008
1071.9  0.00008
1072.0  0.00008
1072.1  0.00008
1072.2  0.00008
1072.3  0.00008
1072.4  0.00008
1072.5  0.00008
1072.6  0.00008
1072.7  0.00008
1072.8  0.00008
1072.9  0.00008
1073.0  0.00008
1073.1  0.00008
1073.2  0.00008
1073.3  0.00008
1073.4  0.00008
1073.5  0.00008
1073.6  0.00008
1073.7  0.00008
1073.8  0.00008
1073.9  0.00008
1074.0  0.00008
1074.1  0.00008
1074.2  0.00008
1074.3  0.00008
1074.4  0.00008
1074.5  0.00007
1074.6  0.00007
1074.7  0.00007
1074.8  0.00007
1074.9  0.00007
1075.0  0.00007
1075.1  0.00007
1075.2  0.00007
1075.3  0.00007
1075.4  0.00007
1075.5  0.00007
1075.6  0.00007
1075.7  0.00007
1075.8  0.00007
1075.9  0.00007
1076.0  0.00007
1076.1  0.00007
1076.2  0.00007
1076.3  0.00007
1076.4  0.00007
1076.5  0.00007
1076.6  0.00007
1076.7  0.00007
1076.8  0.00007
1076.9  0.00007
1077.0  0.00007
1077.1  0.00007
1077.2  0.00007
1077.3  0.00007
1077.4  0.00007
1077.5  0.00007
1077.6  0.00007
1077.7  0.00007
1077.8  0.00007
1077.9  0.00007
1078.0  0.00007
1078.1  0.00007
1078.2  0.00007
1078.3  0.00007
1078.4  0.00007
1078.5  0.00007
1078.6  0.00007
1078.7  0.00007
1078.8  0.00007
1078.9  0.00007
1079.0  0.00007
1079.1  0.00007
1079.2  0.00007
1079.3  0.00007
1079.4  0.00007
1079.5  0.00007
1079.6  0.00007
1079.7  0.00007
1079.8  0.00007
1079.9  0.00007
1080.0  0.00007
1080.1  0.00007
1080.2  0.00007
1080.3  0.00007
1080.4  0.00007
1080.5  0.00007
1080.6  0.00007
1080.7  0.00007
1080.8  0.00007
1080.9  0.00007
1081.0  0.00007
1081.1  0.00007
1081.2  0.00007
1081.3  0.00007
1081.4  0.00007
1081.5  0.00007
1081.6  0.00007
1081.7  0.00007
1081.8  0.00007
1081.9  0.00007
1082.0  0.00007
1082.1  0.00007
1082.2  0.00007
1082.3  0.00007
1082.4  0.00007
1082.5  0.00007
1082.6  0.00007
1082.7  0.00007
1082.8  0.00007
1082.9  0.00007
1083.0  0.00007
1083.1  0.00007
1083.2  0.00007
1083.3  0.00007
1083.4  0.00007
1083.5  0.00007
1083.6  0.00008
1083.7  0.00008
1083.8  0.00008
1083.9  0.00008
1084.0  0.00008
1084.1  0.00008
1084.2  0.00008
1084.3  0.00008
1084.4  0.00008
1084.5  0.00008
1084.6  0.00008
1084.7  0.00008
1084.8  0.00008
1084.9  0.00008
1085.0  0.00008
1085.1  0.00008
1085.2  0.00008
1085.3  0.00008
1085.4  0.00008
1085.5  0.00008
1085.6  0.00008
1085.7  0.00008
1085.8  0.00008
1085.9  0.00008
1086.0  0.00008
1086.1  0.00008
1086.2  0.00008
1086.3  0.00008
1086.4  0.00008
1086.5  0.00008
1086.6  0.00008
1086.7  0.00008
1086.8  0.00008
1086.9  0.00008
1087.0  0.00008
1087.1  0.00008
1087.2  0.00008
1087.3  0.00008
1087.4  0.00008
1087.5  0.00008
1087.6  0.00008
1087.7  0.00008
1087.8  0.00008
1087.9  0.00008
1088.0  0.00008
1088.1  0.00008
1088.2  0.00008
1088.3  0.00008
1088.4  0.00009
1088.5  0.00009
1088.6  0.00009
1088.7  0.00009
1088.8  0.00009
1088.9  0.00009
1089.0  0.00009
1089.1  0.00009
1089.2  0.00009
1089.3  0.00009
1089.4  0.00009
1089.5  0.00009
1089.6  0.00009
1089.7  0.00009
1089.8  0.00009
1089.9  0.00009
1090.0  0.00009
1090.1  0.00009
1090.2  0.00009
1090.3  0.00009
1090.4  0.00009
1090.5  0.00009
1090.6  0.00009
1090.7  0.00009
1090.8  0.00009
1090.9  0.00009
1091.0  0.00010
1091.1  0.00010
1091.2  0.00010
1091.3  0.00010
1091.4  0.00010
1091.5  0.00010
1091.6  0.00010
1091.7  0.00010
1091.8  0.00010
1091.9  0.00010
1092.0  0.00010
1092.1  0.00010
1092.2  0.00010
1092.3  0.00010
1092.4  0.00010
1092.5  0.00010
1092.6  0.00010
1092.7  0.00010
1092.8  0.00010
1092.9  0.00010
1093.0  0.00011
1093.1  0.00011
1093.2  0.00011
1093.3  0.00011
1093.4  0.00011
1093.5  0.00011
1093.6  0.00011
1093.7  0.00011
1093.8  0.00011
1093.9  0.00011
1094.0  0.00011
1094.1  0.00011
1094.2  0.00011
1094.3  0.00011
1094.4  0.00011
1094.5  0.00012
1094.6  0.00012
1094.7  0.00012
1094.8  0.00012
1094.9  0.00012
1095.0  0.00012
1095.1  0.00012
1095.2  0.00012
1095.3  0.00012
1095.4  0.00012
1095.5  0.00012
1095.6  0.00012
1095.7  0.00012
1095.8  0.00013
1095.9  0.00013
1096.0  0.00013
1096.1  0.00013
1096.2  0.00013
1096.3  0.00013
1096.4  0.00013
1096.5  0.00013
1096.6  0.00013
1096.7  0.00013
1096.8  0.00013
1096.9  0.00014
1097.0  0.00014
1097.1  0.00014
1097.2  0.00014
1097.3  0.00014
1097.4  0.00014
1097.5  0.00014
1097.6  0.00014
1097.7  0.00014
1097.8  0.00014
1097.9  0.00015
1098.0  0.00015
1098.1  0.00015
1098.2  0.00015
1098.3  0.00015
1098.4  0.00015
1098.5  0.00015
1098.6  0.00015
1098.7  0.00016
1098.8  0.00016
1098.9  0.00016
1099.0  0.00016
1099.1  0.00016
1099.2  0.00016
1099.3  0.00016
1099.4  0.00016
1099.5  0.00017
1099.6  0.00017
1099.7  0.00017
1099.8  0.00017
1099.9  0.00017
1100.0  0.00017
