# Gemini GMOS-S OVI filter G0347
# Parallel beam at 4.12 degrees AOI

# Effective wavelength (nm):
683.5

# Wavelength Transmittance
#   (nm)         (%)
300.0  0.00000
300.1  0.00000
300.2  0.00000
300.3  0.00000
300.4  0.00000
300.5  0.00000
300.6  0.00000
300.7  0.00000
300.8  0.00000
300.9  0.00000
301.0  0.00000
301.1  0.00000
301.2  0.00000
301.3  0.00000
301.4  0.00000
301.5  0.00000
301.6  0.00000
301.7  0.00000
301.8  0.00000
301.9  0.00000
302.0  0.00000
302.1  0.00000
302.2  0.00000
302.3  0.00000
302.4  0.00000
302.5  0.00000
302.6  0.00000
302.7  0.00000
302.8  0.00000
302.9  0.00000
303.0  0.00000
303.1  0.00000
303.2  0.00000
303.3  0.00000
303.4  0.00000
303.5  0.00000
303.6  0.00000
303.7  0.00000
303.8  0.00000
303.9  0.00000
304.0  0.00000
304.1  0.00000
304.2  0.00000
304.3  0.00000
304.4  0.00000
304.5  0.00000
304.6  0.00000
304.7  0.00000
304.8  0.00000
304.9  0.00000
305.0  0.00000
305.1  0.00000
305.2  0.00000
305.3  0.00000
305.4  0.00000
305.5  0.00000
305.6  0.00000
305.7  0.00000
305.8  0.00000
305.9  0.00000
306.0  0.00000
306.1  0.00000
306.2  0.00000
306.3  0.00000
306.4  0.00000
306.5  0.00000
306.6  0.00000
306.7  0.00000
306.8  0.00000
306.9  0.00000
307.0  0.00000
307.1  0.00000
307.2  0.00000
307.3  0.00000
307.4  0.00000
307.5  0.00000
307.6  0.00000
307.7  0.00000
307.8  0.00000
307.9  0.00000
308.0  0.00000
308.1  0.00000
308.2  0.00000
308.3  0.00000
308.4  0.00000
308.5  0.00000
308.6  0.00000
308.7  0.00000
308.8  0.00000
308.9  0.00000
309.0  0.00000
309.1  0.00000
309.2  0.00000
309.3  0.00000
309.4  0.00000
309.5  0.00000
309.6  0.00000
309.7  0.00000
309.8  0.00000
309.9  0.00000
310.0  0.00000
310.1  0.00000
310.2  0.00000
310.3  0.00000
310.4  0.00000
310.5  0.00000
310.6  0.00000
310.7  0.00000
310.8  0.00000
310.9  0.00000
311.0  0.00000
311.1  0.00000
311.2  0.00000
311.3  0.00000
311.4  0.00000
311.5  0.00000
311.6  0.00000
311.7  0.00000
311.8  0.00000
311.9  0.00000
312.0  0.00000
312.1  0.00000
312.2  0.00000
312.3  0.00000
312.4  0.00000
312.5  0.00000
312.6  0.00000
312.7  0.00000
312.8  0.00000
312.9  0.00000
313.0  0.00000
313.1  0.00000
313.2  0.00000
313.3  0.00000
313.4  0.00000
313.5  0.00000
313.6  0.00000
313.7  0.00000
313.8  0.00000
313.9  0.00000
314.0  0.00000
314.1  0.00000
314.2  0.00000
314.3  0.00000
314.4  0.00000
314.5  0.00000
314.6  0.00000
314.7  0.00000
314.8  0.00000
314.9  0.00000
315.0  0.00000
315.1  0.00000
315.2  0.00000
315.3  0.00000
315.4  0.00000
315.5  0.00000
315.6  0.00000
315.7  0.00000
315.8  0.00000
315.9  0.00000
316.0  0.00000
316.1  0.00000
316.2  0.00000
316.3  0.00000
316.4  0.00000
316.5  0.00000
316.6  0.00000
316.7  0.00000
316.8  0.00000
316.9  0.00000
317.0  0.00000
317.1  0.00000
317.2  0.00000
317.3  0.00000
317.4  0.00000
317.5  0.00000
317.6  0.00000
317.7  0.00000
317.8  0.00000
317.9  0.00000
318.0  0.00000
318.1  0.00000
318.2  0.00000
318.3  0.00000
318.4  0.00000
318.5  0.00000
318.6  0.00000
318.7  0.00000
318.8  0.00000
318.9  0.00000
319.0  0.00000
319.1  0.00000
319.2  0.00000
319.3  0.00000
319.4  0.00000
319.5  0.00000
319.6  0.00000
319.7  0.00000
319.8  0.00000
319.9  0.00000
320.0  0.00000
320.1  0.00000
320.2  0.00000
320.3  0.00000
320.4  0.00000
320.5  0.00000
320.6  0.00000
320.7  0.00000
320.8  0.00000
320.9  0.00000
321.0  0.00000
321.1  0.00000
321.2  0.00000
321.3  0.00000
321.4  0.00000
321.5  0.00000
321.6  0.00000
321.7  0.00000
321.8  0.00000
321.9  0.00000
322.0  0.00000
322.1  0.00000
322.2  0.00000
322.3  0.00000
322.4  0.00000
322.5  0.00000
322.6  0.00000
322.7  0.00000
322.8  0.00000
322.9  0.00000
323.0  0.00000
323.1  0.00000
323.2  0.00000
323.3  0.00000
323.4  0.00000
323.5  0.00000
323.6  0.00000
323.7  0.00000
323.8  0.00000
323.9  0.00000
324.0  0.00000
324.1  0.00000
324.2  0.00000
324.3  0.00000
324.4  0.00000
324.5  0.00000
324.6  0.00000
324.7  0.00000
324.8  0.00000
324.9  0.00000
325.0  0.00000
325.1  0.00000
325.2  0.00000
325.3  0.00000
325.4  0.00000
325.5  0.00000
325.6  0.00000
325.7  0.00000
325.8  0.00000
325.9  0.00000
326.0  0.00000
326.1  0.00000
326.2  0.00000
326.3  0.00000
326.4  0.00000
326.5  0.00000
326.6  0.00000
326.7  0.00000
326.8  0.00000
326.9  0.00000
327.0  0.00000
327.1  0.00000
327.2  0.00000
327.3  0.00000
327.4  0.00000
327.5  0.00000
327.6  0.00000
327.7  0.00000
327.8  0.00000
327.9  0.00000
328.0  0.00000
328.1  0.00000
328.2  0.00000
328.3  0.00000
328.4  0.00000
328.5  0.00000
328.6  0.00000
328.7  0.00000
328.8  0.00000
328.9  0.00000
329.0  0.00000
329.1  0.00000
329.2  0.00000
329.3  0.00000
329.4  0.00000
329.5  0.00000
329.6  0.00000
329.7  0.00000
329.8  0.00000
329.9  0.00000
330.0  0.00000
330.1  0.00000
330.2  0.00000
330.3  0.00000
330.4  0.00000
330.5  0.00000
330.6  0.00000
330.7  0.00000
330.8  0.00000
330.9  0.00000
331.0  0.00000
331.1  0.00000
331.2  0.00000
331.3  0.00000
331.4  0.00000
331.5  0.00000
331.6  0.00000
331.7  0.00000
331.8  0.00000
331.9  0.00000
332.0  0.00000
332.1  0.00000
332.2  0.00000
332.3  0.00000
332.4  0.00000
332.5  0.00000
332.6  0.00000
332.7  0.00000
332.8  0.00000
332.9  0.00000
333.0  0.00000
333.1  0.00000
333.2  0.00000
333.3  0.00000
333.4  0.00000
333.5  0.00000
333.6  0.00000
333.7  0.00000
333.8  0.00000
333.9  0.00000
334.0  0.00000
334.1  0.00000
334.2  0.00000
334.3  0.00000
334.4  0.00000
334.5  0.00000
334.6  0.00000
334.7  0.00000
334.8  0.00000
334.9  0.00000
335.0  0.00000
335.1  0.00000
335.2  0.00000
335.3  0.00000
335.4  0.00000
335.5  0.00000
335.6  0.00000
335.7  0.00000
335.8  0.00000
335.9  0.00000
336.0  0.00000
336.1  0.00000
336.2  0.00000
336.3  0.00000
336.4  0.00000
336.5  0.00000
336.6  0.00000
336.7  0.00000
336.8  0.00000
336.9  0.00000
337.0  0.00000
337.1  0.00000
337.2  0.00000
337.3  0.00000
337.4  0.00000
337.5  0.00000
337.6  0.00000
337.7  0.00000
337.8  0.00000
337.9  0.00000
338.0  0.00000
338.1  0.00000
338.2  0.00000
338.3  0.00000
338.4  0.00000
338.5  0.00000
338.6  0.00000
338.7  0.00000
338.8  0.00000
338.9  0.00000
339.0  0.00000
339.1  0.00000
339.2  0.00000
339.3  0.00000
339.4  0.00000
339.5  0.00000
339.6  0.00000
339.7  0.00000
339.8  0.00000
339.9  0.00000
340.0  0.00000
340.1  0.00000
340.2  0.00000
340.3  0.00000
340.4  0.00000
340.5  0.00000
340.6  0.00000
340.7  0.00000
340.8  0.00000
340.9  0.00000
341.0  0.00000
341.1  0.00000
341.2  0.00000
341.3  0.00000
341.4  0.00000
341.5  0.00000
341.6  0.00000
341.7  0.00000
341.8  0.00000
341.9  0.00000
342.0  0.00000
342.1  0.00000
342.2  0.00000
342.3  0.00000
342.4  0.00000
342.5  0.00000
342.6  0.00000
342.7  0.00000
342.8  0.00000
342.9  0.00000
343.0  0.00000
343.1  0.00000
343.2  0.00000
343.3  0.00000
343.4  0.00000
343.5  0.00000
343.6  0.00000
343.7  0.00000
343.8  0.00000
343.9  0.00000
344.0  0.00000
344.1  0.00000
344.2  0.00000
344.3  0.00000
344.4  0.00000
344.5  0.00000
344.6  0.00000
344.7  0.00000
344.8  0.00000
344.9  0.00000
345.0  0.00000
345.1  0.00000
345.2  0.00000
345.3  0.00000
345.4  0.00000
345.5  0.00000
345.6  0.00000
345.7  0.00000
345.8  0.00000
345.9  0.00000
346.0  0.00000
346.1  0.00000
346.2  0.00000
346.3  0.00000
346.4  0.00000
346.5  0.00000
346.6  0.00000
346.7  0.00000
346.8  0.00000
346.9  0.00000
347.0  0.00000
347.1  0.00000
347.2  0.00000
347.3  0.00000
347.4  0.00000
347.5  0.00000
347.6  0.00000
347.7  0.00000
347.8  0.00000
347.9  0.00000
348.0  0.00000
348.1  0.00000
348.2  0.00000
348.3  0.00000
348.4  0.00000
348.5  0.00000
348.6  0.00000
348.7  0.00000
348.8  0.00000
348.9  0.00000
349.0  0.00000
349.1  0.00000
349.2  0.00000
349.3  0.00000
349.4  0.00000
349.5  0.00000
349.6  0.00000
349.7  0.00000
349.8  0.00000
349.9  0.00000
350.0  0.00000
350.1  0.00000
350.2  0.00000
350.3  0.00000
350.4  0.00000
350.5  0.00000
350.6  0.00000
350.7  0.00000
350.8  0.00000
350.9  0.00000
351.0  0.00000
351.1  0.00000
351.2  0.00000
351.3  0.00000
351.4  0.00000
351.5  0.00000
351.6  0.00000
351.7  0.00000
351.8  0.00000
351.9  0.00000
352.0  0.00000
352.1  0.00000
352.2  0.00000
352.3  0.00000
352.4  0.00000
352.5  0.00000
352.6  0.00000
352.7  0.00000
352.8  0.00000
352.9  0.00000
353.0  0.00000
353.1  0.00000
353.2  0.00000
353.3  0.00000
353.4  0.00000
353.5  0.00000
353.6  0.00000
353.7  0.00000
353.8  0.00000
353.9  0.00000
354.0  0.00000
354.1  0.00000
354.2  0.00000
354.3  0.00000
354.4  0.00000
354.5  0.00000
354.6  0.00000
354.7  0.00000
354.8  0.00000
354.9  0.00000
355.0  0.00000
355.1  0.00000
355.2  0.00000
355.3  0.00000
355.4  0.00000
355.5  0.00000
355.6  0.00000
355.7  0.00000
355.8  0.00000
355.9  0.00000
356.0  0.00000
356.1  0.00000
356.2  0.00000
356.3  0.00000
356.4  0.00000
356.5  0.00000
356.6  0.00000
356.7  0.00001
356.8  0.00001
356.9  0.00001
357.0  0.00001
357.1  0.00002
357.2  0.00003
357.3  0.00004
357.4  0.00005
357.5  0.00006
357.6  0.00007
357.7  0.00008
357.8  0.00008
357.9  0.00008
358.0  0.00007
358.1  0.00006
358.2  0.00006
358.3  0.00005
358.4  0.00004
358.5  0.00003
358.6  0.00003
358.7  0.00002
358.8  0.00002
358.9  0.00002
359.0  0.00002
359.1  0.00002
359.2  0.00002
359.3  0.00002
359.4  0.00002
359.5  0.00001
359.6  0.00001
359.7  0.00001
359.8  0.00000
359.9  0.00000
360.0  0.00000
360.1  0.00000
360.2  0.00000
360.3  0.00000
360.4  0.00000
360.5  0.00000
360.6  0.00000
360.7  0.00000
360.8  0.00000
360.9  0.00000
361.0  0.00000
361.1  0.00000
361.2  0.00000
361.3  0.00000
361.4  0.00000
361.5  0.00000
361.6  0.00000
361.7  0.00000
361.8  0.00000
361.9  0.00000
362.0  0.00000
362.1  0.00000
362.2  0.00000
362.3  0.00000
362.4  0.00000
362.5  0.00000
362.6  0.00000
362.7  0.00000
362.8  0.00000
362.9  0.00000
363.0  0.00000
363.1  0.00000
363.2  0.00000
363.3  0.00000
363.4  0.00000
363.5  0.00000
363.6  0.00000
363.7  0.00000
363.8  0.00000
363.9  0.00000
364.0  0.00000
364.1  0.00000
364.2  0.00000
364.3  0.00000
364.4  0.00000
364.5  0.00000
364.6  0.00000
364.7  0.00000
364.8  0.00000
364.9  0.00000
365.0  0.00000
365.1  0.00000
365.2  0.00000
365.3  0.00000
365.4  0.00000
365.5  0.00000
365.6  0.00000
365.7  0.00000
365.8  0.00000
365.9  0.00000
366.0  0.00000
366.1  0.00000
366.2  0.00000
366.3  0.00000
366.4  0.00000
366.5  0.00000
366.6  0.00000
366.7  0.00000
366.8  0.00000
366.9  0.00000
367.0  0.00000
367.1  0.00000
367.2  0.00000
367.3  0.00000
367.4  0.00000
367.5  0.00000
367.6  0.00000
367.7  0.00000
367.8  0.00000
367.9  0.00000
368.0  0.00000
368.1  0.00000
368.2  0.00000
368.3  0.00000
368.4  0.00000
368.5  0.00000
368.6  0.00000
368.7  0.00000
368.8  0.00000
368.9  0.00000
369.0  0.00000
369.1  0.00000
369.2  0.00000
369.3  0.00000
369.4  0.00000
369.5  0.00000
369.6  0.00000
369.7  0.00000
369.8  0.00000
369.9  0.00000
370.0  0.00000
370.1  0.00000
370.2  0.00000
370.3  0.00000
370.4  0.00000
370.5  0.00000
370.6  0.00000
370.7  0.00000
370.8  0.00000
370.9  0.00000
371.0  0.00000
371.1  0.00000
371.2  0.00000
371.3  0.00000
371.4  0.00000
371.5  0.00000
371.6  0.00000
371.7  0.00000
371.8  0.00000
371.9  0.00000
372.0  0.00000
372.1  0.00000
372.2  0.00000
372.3  0.00000
372.4  0.00000
372.5  0.00000
372.6  0.00000
372.7  0.00000
372.8  0.00000
372.9  0.00000
373.0  0.00000
373.1  0.00000
373.2  0.00000
373.3  0.00000
373.4  0.00000
373.5  0.00000
373.6  0.00000
373.7  0.00000
373.8  0.00000
373.9  0.00000
374.0  0.00000
374.1  0.00000
374.2  0.00000
374.3  0.00000
374.4  0.00000
374.5  0.00000
374.6  0.00000
374.7  0.00000
374.8  0.00000
374.9  0.00000
375.0  0.00000
375.1  0.00000
375.2  0.00000
375.3  0.00000
375.4  0.00000
375.5  0.00000
375.6  0.00000
375.7  0.00000
375.8  0.00000
375.9  0.00000
376.0  0.00000
376.1  0.00000
376.2  0.00000
376.3  0.00000
376.4  0.00000
376.5  0.00000
376.6  0.00000
376.7  0.00000
376.8  0.00000
376.9  0.00000
377.0  0.00000
377.1  0.00000
377.2  0.00000
377.3  0.00000
377.4  0.00000
377.5  0.00000
377.6  0.00000
377.7  0.00000
377.8  0.00000
377.9  0.00000
378.0  0.00000
378.1  0.00000
378.2  0.00000
378.3  0.00000
378.4  0.00000
378.5  0.00000
378.6  0.00000
378.7  0.00000
378.8  0.00000
378.9  0.00000
379.0  0.00000
379.1  0.00000
379.2  0.00000
379.3  0.00000
379.4  0.00000
379.5  0.00000
379.6  0.00000
379.7  0.00000
379.8  0.00000
379.9  0.00000
380.0  0.00000
380.1  0.00000
380.2  0.00000
380.3  0.00000
380.4  0.00000
380.5  0.00000
380.6  0.00000
380.7  0.00000
380.8  0.00000
380.9  0.00000
381.0  0.00000
381.1  0.00000
381.2  0.00000
381.3  0.00000
381.4  0.00000
381.5  0.00000
381.6  0.00000
381.7  0.00000
381.8  0.00000
381.9  0.00000
382.0  0.00000
382.1  0.00000
382.2  0.00000
382.3  0.00000
382.4  0.00000
382.5  0.00000
382.6  0.00000
382.7  0.00000
382.8  0.00000
382.9  0.00000
383.0  0.00000
383.1  0.00000
383.2  0.00000
383.3  0.00000
383.4  0.00000
383.5  0.00000
383.6  0.00000
383.7  0.00000
383.8  0.00000
383.9  0.00000
384.0  0.00000
384.1  0.00000
384.2  0.00000
384.3  0.00000
384.4  0.00000
384.5  0.00000
384.6  0.00000
384.7  0.00000
384.8  0.00000
384.9  0.00000
385.0  0.00000
385.1  0.00000
385.2  0.00000
385.3  0.00000
385.4  0.00000
385.5  0.00000
385.6  0.00000
385.7  0.00000
385.8  0.00000
385.9  0.00000
386.0  0.00000
386.1  0.00000
386.2  0.00000
386.3  0.00000
386.4  0.00000
386.5  0.00000
386.6  0.00000
386.7  0.00000
386.8  0.00000
386.9  0.00000
387.0  0.00000
387.1  0.00000
387.2  0.00000
387.3  0.00000
387.4  0.00000
387.5  0.00000
387.6  0.00000
387.7  0.00000
387.8  0.00000
387.9  0.00000
388.0  0.00000
388.1  0.00000
388.2  0.00000
388.3  0.00000
388.4  0.00000
388.5  0.00000
388.6  0.00000
388.7  0.00000
388.8  0.00000
388.9  0.00000
389.0  0.00000
389.1  0.00000
389.2  0.00000
389.3  0.00000
389.4  0.00000
389.5  0.00000
389.6  0.00000
389.7  0.00000
389.8  0.00000
389.9  0.00000
390.0  0.00000
390.1  0.00000
390.2  0.00000
390.3  0.00000
390.4  0.00000
390.5  0.00000
390.6  0.00000
390.7  0.00000
390.8  0.00000
390.9  0.00000
391.0  0.00000
391.1  0.00000
391.2  0.00000
391.3  0.00000
391.4  0.00000
391.5  0.00000
391.6  0.00000
391.7  0.00000
391.8  0.00000
391.9  0.00000
392.0  0.00000
392.1  0.00000
392.2  0.00000
392.3  0.00000
392.4  0.00000
392.5  0.00000
392.6  0.00000
392.7  0.00000
392.8  0.00000
392.9  0.00000
393.0  0.00000
393.1  0.00000
393.2  0.00000
393.3  0.00000
393.4  0.00000
393.5  0.00000
393.6  0.00000
393.7  0.00000
393.8  0.00000
393.9  0.00000
394.0  0.00000
394.1  0.00000
394.2  0.00000
394.3  0.00000
394.4  0.00000
394.5  0.00000
394.6  0.00000
394.7  0.00000
394.8  0.00000
394.9  0.00000
395.0  0.00000
395.1  0.00000
395.2  0.00000
395.3  0.00000
395.4  0.00000
395.5  0.00000
395.6  0.00000
395.7  0.00000
395.8  0.00000
395.9  0.00000
396.0  0.00000
396.1  0.00000
396.2  0.00000
396.3  0.00000
396.4  0.00000
396.5  0.00000
396.6  0.00000
396.7  0.00000
396.8  0.00000
396.9  0.00000
397.0  0.00000
397.1  0.00000
397.2  0.00000
397.3  0.00000
397.4  0.00000
397.5  0.00000
397.6  0.00000
397.7  0.00000
397.8  0.00000
397.9  0.00000
398.0  0.00000
398.1  0.00000
398.2  0.00000
398.3  0.00000
398.4  0.00000
398.5  0.00000
398.6  0.00000
398.7  0.00000
398.8  0.00000
398.9  0.00000
399.0  0.00000
399.1  0.00000
399.2  0.00000
399.3  0.00000
399.4  0.00000
399.5  0.00000
399.6  0.00000
399.7  0.00000
399.8  0.00000
399.9  0.00000
400.0  0.00000
400.1  0.00000
400.2  0.00000
400.3  0.00000
400.4  0.00000
400.5  0.00000
400.6  0.00000
400.7  0.00000
400.8  0.00000
400.9  0.00000
401.0  0.00000
401.1  0.00000
401.2  0.00000
401.3  0.00000
401.4  0.00000
401.5  0.00000
401.6  0.00000
401.7  0.00000
401.8  0.00000
401.9  0.00000
402.0  0.00000
402.1  0.00000
402.2  0.00000
402.3  0.00000
402.4  0.00000
402.5  0.00000
402.6  0.00000
402.7  0.00000
402.8  0.00000
402.9  0.00000
403.0  0.00000
403.1  0.00000
403.2  0.00000
403.3  0.00000
403.4  0.00000
403.5  0.00000
403.6  0.00000
403.7  0.00000
403.8  0.00000
403.9  0.00000
404.0  0.00000
404.1  0.00000
404.2  0.00000
404.3  0.00000
404.4  0.00000
404.5  0.00000
404.6  0.00000
404.7  0.00000
404.8  0.00000
404.9  0.00000
405.0  0.00000
405.1  0.00000
405.2  0.00000
405.3  0.00000
405.4  0.00000
405.5  0.00000
405.6  0.00000
405.7  0.00000
405.8  0.00000
405.9  0.00000
406.0  0.00000
406.1  0.00000
406.2  0.00000
406.3  0.00000
406.4  0.00000
406.5  0.00000
406.6  0.00000
406.7  0.00000
406.8  0.00000
406.9  0.00000
407.0  0.00000
407.1  0.00000
407.2  0.00000
407.3  0.00000
407.4  0.00000
407.5  0.00000
407.6  0.00000
407.7  0.00000
407.8  0.00000
407.9  0.00000
408.0  0.00000
408.1  0.00000
408.2  0.00000
408.3  0.00000
408.4  0.00000
408.5  0.00000
408.6  0.00000
408.7  0.00000
408.8  0.00000
408.9  0.00000
409.0  0.00000
409.1  0.00000
409.2  0.00000
409.3  0.00000
409.4  0.00000
409.5  0.00000
409.6  0.00000
409.7  0.00000
409.8  0.00000
409.9  0.00000
410.0  0.00000
410.1  0.00000
410.2  0.00000
410.3  0.00000
410.4  0.00000
410.5  0.00000
410.6  0.00000
410.7  0.00000
410.8  0.00000
410.9  0.00000
411.0  0.00000
411.1  0.00000
411.2  0.00000
411.3  0.00000
411.4  0.00000
411.5  0.00000
411.6  0.00000
411.7  0.00000
411.8  0.00000
411.9  0.00000
412.0  0.00000
412.1  0.00000
412.2  0.00000
412.3  0.00000
412.4  0.00000
412.5  0.00000
412.6  0.00000
412.7  0.00000
412.8  0.00000
412.9  0.00000
413.0  0.00000
413.1  0.00000
413.2  0.00000
413.3  0.00000
413.4  0.00000
413.5  0.00000
413.6  0.00000
413.7  0.00000
413.8  0.00000
413.9  0.00000
414.0  0.00000
414.1  0.00000
414.2  0.00000
414.3  0.00000
414.4  0.00000
414.5  0.00000
414.6  0.00000
414.7  0.00000
414.8  0.00000
414.9  0.00000
415.0  0.00000
415.1  0.00000
415.2  0.00000
415.3  0.00000
415.4  0.00000
415.5  0.00000
415.6  0.00000
415.7  0.00000
415.8  0.00000
415.9  0.00000
416.0  0.00000
416.1  0.00000
416.2  0.00000
416.3  0.00000
416.4  0.00000
416.5  0.00000
416.6  0.00000
416.7  0.00000
416.8  0.00000
416.9  0.00000
417.0  0.00000
417.1  0.00000
417.2  0.00000
417.3  0.00000
417.4  0.00000
417.5  0.00000
417.6  0.00000
417.7  0.00000
417.8  0.00000
417.9  0.00000
418.0  0.00000
418.1  0.00000
418.2  0.00000
418.3  0.00000
418.4  0.00000
418.5  0.00000
418.6  0.00000
418.7  0.00000
418.8  0.00000
418.9  0.00000
419.0  0.00000
419.1  0.00000
419.2  0.00000
419.3  0.00000
419.4  0.00000
419.5  0.00000
419.6  0.00000
419.7  0.00000
419.8  0.00000
419.9  0.00000
420.0  0.00000
420.1  0.00000
420.2  0.00000
420.3  0.00000
420.4  0.00000
420.5  0.00000
420.6  0.00000
420.7  0.00000
420.8  0.00000
420.9  0.00000
421.0  0.00000
421.1  0.00000
421.2  0.00000
421.3  0.00000
421.4  0.00000
421.5  0.00000
421.6  0.00000
421.7  0.00000
421.8  0.00000
421.9  0.00000
422.0  0.00000
422.1  0.00000
422.2  0.00000
422.3  0.00000
422.4  0.00000
422.5  0.00000
422.6  0.00000
422.7  0.00000
422.8  0.00000
422.9  0.00000
423.0  0.00000
423.1  0.00000
423.2  0.00000
423.3  0.00000
423.4  0.00000
423.5  0.00000
423.6  0.00000
423.7  0.00000
423.8  0.00000
423.9  0.00000
424.0  0.00000
424.1  0.00000
424.2  0.00000
424.3  0.00000
424.4  0.00000
424.5  0.00000
424.6  0.00000
424.7  0.00000
424.8  0.00000
424.9  0.00000
425.0  0.00000
425.1  0.00000
425.2  0.00000
425.3  0.00000
425.4  0.00000
425.5  0.00000
425.6  0.00000
425.7  0.00000
425.8  0.00000
425.9  0.00000
426.0  0.00000
426.1  0.00000
426.2  0.00000
426.3  0.00000
426.4  0.00000
426.5  0.00000
426.6  0.00000
426.7  0.00000
426.8  0.00000
426.9  0.00000
427.0  0.00000
427.1  0.00000
427.2  0.00000
427.3  0.00000
427.4  0.00000
427.5  0.00000
427.6  0.00000
427.7  0.00000
427.8  0.00000
427.9  0.00000
428.0  0.00000
428.1  0.00000
428.2  0.00000
428.3  0.00000
428.4  0.00000
428.5  0.00000
428.6  0.00000
428.7  0.00000
428.8  0.00000
428.9  0.00000
429.0  0.00000
429.1  0.00000
429.2  0.00000
429.3  0.00000
429.4  0.00000
429.5  0.00000
429.6  0.00000
429.7  0.00000
429.8  0.00000
429.9  0.00000
430.0  0.00000
430.1  0.00000
430.2  0.00000
430.3  0.00000
430.4  0.00000
430.5  0.00000
430.6  0.00000
430.7  0.00000
430.8  0.00000
430.9  0.00000
431.0  0.00000
431.1  0.00000
431.2  0.00000
431.3  0.00000
431.4  0.00000
431.5  0.00000
431.6  0.00000
431.7  0.00000
431.8  0.00000
431.9  0.00000
432.0  0.00000
432.1  0.00000
432.2  0.00000
432.3  0.00000
432.4  0.00000
432.5  0.00000
432.6  0.00000
432.7  0.00000
432.8  0.00000
432.9  0.00000
433.0  0.00000
433.1  0.00000
433.2  0.00000
433.3  0.00000
433.4  0.00000
433.5  0.00000
433.6  0.00000
433.7  0.00000
433.8  0.00000
433.9  0.00000
434.0  0.00000
434.1  0.00000
434.2  0.00000
434.3  0.00000
434.4  0.00000
434.5  0.00000
434.6  0.00000
434.7  0.00000
434.8  0.00000
434.9  0.00000
435.0  0.00000
435.1  0.00000
435.2  0.00000
435.3  0.00000
435.4  0.00000
435.5  0.00000
435.6  0.00000
435.7  0.00000
435.8  0.00000
435.9  0.00000
436.0  0.00000
436.1  0.00000
436.2  0.00000
436.3  0.00000
436.4  0.00000
436.5  0.00000
436.6  0.00000
436.7  0.00000
436.8  0.00000
436.9  0.00000
437.0  0.00000
437.1  0.00000
437.2  0.00000
437.3  0.00000
437.4  0.00000
437.5  0.00000
437.6  0.00000
437.7  0.00000
437.8  0.00000
437.9  0.00000
438.0  0.00000
438.1  0.00000
438.2  0.00000
438.3  0.00000
438.4  0.00000
438.5  0.00000
438.6  0.00000
438.7  0.00000
438.8  0.00000
438.9  0.00000
439.0  0.00000
439.1  0.00000
439.2  0.00000
439.3  0.00000
439.4  0.00000
439.5  0.00000
439.6  0.00000
439.7  0.00000
439.8  0.00000
439.9  0.00000
440.0  0.00000
440.1  0.00000
440.2  0.00000
440.3  0.00000
440.4  0.00000
440.5  0.00000
440.6  0.00000
440.7  0.00000
440.8  0.00000
440.9  0.00000
441.0  0.00000
441.1  0.00000
441.2  0.00000
441.3  0.00000
441.4  0.00000
441.5  0.00000
441.6  0.00000
441.7  0.00000
441.8  0.00000
441.9  0.00000
442.0  0.00000
442.1  0.00000
442.2  0.00000
442.3  0.00000
442.4  0.00000
442.5  0.00000
442.6  0.00000
442.7  0.00000
442.8  0.00000
442.9  0.00000
443.0  0.00000
443.1  0.00000
443.2  0.00000
443.3  0.00000
443.4  0.00000
443.5  0.00000
443.6  0.00000
443.7  0.00000
443.8  0.00000
443.9  0.00000
444.0  0.00000
444.1  0.00000
444.2  0.00000
444.3  0.00000
444.4  0.00001
444.5  0.00001
444.6  0.00001
444.7  0.00001
444.8  0.00000
444.9  0.00000
445.0  0.00000
445.1  0.00000
445.2  0.00000
445.3  0.00000
445.4  0.00000
445.5  0.00000
445.6  0.00000
445.7  0.00000
445.8  0.00000
445.9  0.00000
446.0  0.00000
446.1  0.00000
446.2  0.00000
446.3  0.00000
446.4  0.00000
446.5  0.00000
446.6  0.00000
446.7  0.00000
446.8  0.00000
446.9  0.00000
447.0  0.00000
447.1  0.00000
447.2  0.00000
447.3  0.00000
447.4  0.00000
447.5  0.00000
447.6  0.00000
447.7  0.00000
447.8  0.00000
447.9  0.00000
448.0  0.00000
448.1  0.00000
448.2  0.00000
448.3  0.00000
448.4  0.00000
448.5  0.00000
448.6  0.00000
448.7  0.00000
448.8  0.00000
448.9  0.00000
449.0  0.00001
449.1  0.00001
449.2  0.00001
449.3  0.00001
449.4  0.00001
449.5  0.00002
449.6  0.00001
449.7  0.00001
449.8  0.00001
449.9  0.00001
450.0  0.00001
450.1  0.00000
450.2  0.00000
450.3  0.00000
450.4  0.00000
450.5  0.00000
450.6  0.00000
450.7  0.00000
450.8  0.00000
450.9  0.00000
451.0  0.00000
451.1  0.00000
451.2  0.00000
451.3  0.00000
451.4  0.00000
451.5  0.00000
451.6  0.00000
451.7  0.00000
451.8  0.00000
451.9  0.00000
452.0  0.00000
452.1  0.00000
452.2  0.00000
452.3  0.00000
452.4  0.00000
452.5  0.00000
452.6  0.00000
452.7  0.00000
452.8  0.00000
452.9  0.00000
453.0  0.00000
453.1  0.00000
453.2  0.00000
453.3  0.00000
453.4  0.00000
453.5  0.00000
453.6  0.00000
453.7  0.00000
453.8  0.00000
453.9  0.00000
454.0  0.00000
454.1  0.00000
454.2  0.00000
454.3  0.00000
454.4  0.00000
454.5  0.00000
454.6  0.00000
454.7  0.00000
454.8  0.00000
454.9  0.00000
455.0  0.00000
455.1  0.00000
455.2  0.00000
455.3  0.00000
455.4  0.00000
455.5  0.00000
455.6  0.00000
455.7  0.00000
455.8  0.00000
455.9  0.00000
456.0  0.00000
456.1  0.00000
456.2  0.00000
456.3  0.00000
456.4  0.00000
456.5  0.00000
456.6  0.00000
456.7  0.00000
456.8  0.00000
456.9  0.00000
457.0  0.00000
457.1  0.00000
457.2  0.00000
457.3  0.00000
457.4  0.00000
457.5  0.00000
457.6  0.00000
457.7  0.00000
457.8  0.00000
457.9  0.00000
458.0  0.00000
458.1  0.00000
458.2  0.00000
458.3  0.00000
458.4  0.00000
458.5  0.00000
458.6  0.00000
458.7  0.00000
458.8  0.00000
458.9  0.00000
459.0  0.00000
459.1  0.00000
459.2  0.00000
459.3  0.00000
459.4  0.00000
459.5  0.00000
459.6  0.00000
459.7  0.00000
459.8  0.00001
459.9  0.00001
460.0  0.00001
460.1  0.00001
460.2  0.00001
460.3  0.00001
460.4  0.00002
460.5  0.00002
460.6  0.00003
460.7  0.00004
460.8  0.00005
460.9  0.00006
461.0  0.00005
461.1  0.00004
461.2  0.00003
461.3  0.00002
461.4  0.00002
461.5  0.00001
461.6  0.00001
461.7  0.00001
461.8  0.00001
461.9  0.00001
462.0  0.00000
462.1  0.00000
462.2  0.00000
462.3  0.00000
462.4  0.00000
462.5  0.00000
462.6  0.00000
462.7  0.00000
462.8  0.00000
462.9  0.00000
463.0  0.00000
463.1  0.00000
463.2  0.00000
463.3  0.00000
463.4  0.00000
463.5  0.00000
463.6  0.00000
463.7  0.00000
463.8  0.00000
463.9  0.00000
464.0  0.00000
464.1  0.00000
464.2  0.00000
464.3  0.00000
464.4  0.00000
464.5  0.00000
464.6  0.00000
464.7  0.00000
464.8  0.00000
464.9  0.00000
465.0  0.00000
465.1  0.00000
465.2  0.00000
465.3  0.00000
465.4  0.00000
465.5  0.00000
465.6  0.00000
465.7  0.00000
465.8  0.00000
465.9  0.00000
466.0  0.00000
466.1  0.00000
466.2  0.00000
466.3  0.00000
466.4  0.00000
466.5  0.00000
466.6  0.00000
466.7  0.00000
466.8  0.00000
466.9  0.00000
467.0  0.00000
467.1  0.00000
467.2  0.00000
467.3  0.00000
467.4  0.00000
467.5  0.00000
467.6  0.00000
467.7  0.00000
467.8  0.00000
467.9  0.00000
468.0  0.00000
468.1  0.00000
468.2  0.00000
468.3  0.00000
468.4  0.00000
468.5  0.00000
468.6  0.00000
468.7  0.00000
468.8  0.00000
468.9  0.00000
469.0  0.00000
469.1  0.00000
469.2  0.00000
469.3  0.00000
469.4  0.00000
469.5  0.00000
469.6  0.00000
469.7  0.00000
469.8  0.00000
469.9  0.00000
470.0  0.00000
470.1  0.00000
470.2  0.00000
470.3  0.00000
470.4  0.00000
470.5  0.00000
470.6  0.00000
470.7  0.00001
470.8  0.00001
470.9  0.00001
471.0  0.00001
471.1  0.00001
471.2  0.00001
471.3  0.00001
471.4  0.00001
471.5  0.00002
471.6  0.00002
471.7  0.00003
471.8  0.00004
471.9  0.00006
472.0  0.00010
472.1  0.00017
472.2  0.00024
472.3  0.00024
472.4  0.00017
472.5  0.00010
472.6  0.00006
472.7  0.00004
472.8  0.00003
472.9  0.00002
473.0  0.00002
473.1  0.00001
473.2  0.00001
473.3  0.00001
473.4  0.00001
473.5  0.00001
473.6  0.00001
473.7  0.00000
473.8  0.00000
473.9  0.00000
474.0  0.00000
474.1  0.00000
474.2  0.00000
474.3  0.00000
474.4  0.00000
474.5  0.00000
474.6  0.00000
474.7  0.00000
474.8  0.00000
474.9  0.00000
475.0  0.00000
475.1  0.00000
475.2  0.00000
475.3  0.00000
475.4  0.00000
475.5  0.00000
475.6  0.00000
475.7  0.00000
475.8  0.00000
475.9  0.00000
476.0  0.00000
476.1  0.00000
476.2  0.00000
476.3  0.00000
476.4  0.00000
476.5  0.00000
476.6  0.00000
476.7  0.00000
476.8  0.00000
476.9  0.00000
477.0  0.00000
477.1  0.00000
477.2  0.00000
477.3  0.00000
477.4  0.00000
477.5  0.00000
477.6  0.00000
477.7  0.00000
477.8  0.00000
477.9  0.00000
478.0  0.00000
478.1  0.00000
478.2  0.00000
478.3  0.00000
478.4  0.00001
478.5  0.00001
478.6  0.00001
478.7  0.00001
478.8  0.00001
478.9  0.00001
479.0  0.00001
479.1  0.00001
479.2  0.00001
479.3  0.00001
479.4  0.00001
479.5  0.00001
479.6  0.00001
479.7  0.00001
479.8  0.00001
479.9  0.00001
480.0  0.00001
480.1  0.00001
480.2  0.00001
480.3  0.00001
480.4  0.00001
480.5  0.00002
480.6  0.00002
480.7  0.00002
480.8  0.00002
480.9  0.00003
481.0  0.00003
481.1  0.00005
481.2  0.00006
481.3  0.00010
481.4  0.00018
481.5  0.00037
481.6  0.00052
481.7  0.00055
481.8  0.00035
481.9  0.00014
482.0  0.00007
482.1  0.00004
482.2  0.00002
482.3  0.00002
482.4  0.00001
482.5  0.00001
482.6  0.00001
482.7  0.00001
482.8  0.00000
482.9  0.00000
483.0  0.00000
483.1  0.00000
483.2  0.00000
483.3  0.00000
483.4  0.00000
483.5  0.00000
483.6  0.00000
483.7  0.00000
483.8  0.00000
483.9  0.00000
484.0  0.00000
484.1  0.00000
484.2  0.00000
484.3  0.00000
484.4  0.00000
484.5  0.00000
484.6  0.00000
484.7  0.00000
484.8  0.00000
484.9  0.00000
485.0  0.00000
485.1  0.00000
485.2  0.00000
485.3  0.00000
485.4  0.00000
485.5  0.00000
485.6  0.00000
485.7  0.00000
485.8  0.00000
485.9  0.00000
486.0  0.00000
486.1  0.00000
486.2  0.00000
486.3  0.00000
486.4  0.00000
486.5  0.00000
486.6  0.00000
486.7  0.00000
486.8  0.00000
486.9  0.00000
487.0  0.00000
487.1  0.00000
487.2  0.00000
487.3  0.00000
487.4  0.00000
487.5  0.00000
487.6  0.00000
487.7  0.00000
487.8  0.00000
487.9  0.00000
488.0  0.00000
488.1  0.00000
488.2  0.00000
488.3  0.00000
488.4  0.00000
488.5  0.00000
488.6  0.00000
488.7  0.00000
488.8  0.00000
488.9  0.00000
489.0  0.00000
489.1  0.00000
489.2  0.00000
489.3  0.00000
489.4  0.00000
489.5  0.00000
489.6  0.00000
489.7  0.00000
489.8  0.00000
489.9  0.00000
490.0  0.00000
490.1  0.00000
490.2  0.00000
490.3  0.00000
490.4  0.00000
490.5  0.00000
490.6  0.00000
490.7  0.00000
490.8  0.00000
490.9  0.00000
491.0  0.00000
491.1  0.00000
491.2  0.00000
491.3  0.00000
491.4  0.00000
491.5  0.00000
491.6  0.00000
491.7  0.00000
491.8  0.00000
491.9  0.00000
492.0  0.00000
492.1  0.00000
492.2  0.00000
492.3  0.00000
492.4  0.00000
492.5  0.00000
492.6  0.00000
492.7  0.00000
492.8  0.00000
492.9  0.00000
493.0  0.00000
493.1  0.00000
493.2  0.00000
493.3  0.00000
493.4  0.00000
493.5  0.00000
493.6  0.00000
493.7  0.00000
493.8  0.00000
493.9  0.00000
494.0  0.00000
494.1  0.00000
494.2  0.00000
494.3  0.00000
494.4  0.00000
494.5  0.00000
494.6  0.00000
494.7  0.00000
494.8  0.00000
494.9  0.00000
495.0  0.00000
495.1  0.00000
495.2  0.00000
495.3  0.00000
495.4  0.00000
495.5  0.00000
495.6  0.00000
495.7  0.00000
495.8  0.00000
495.9  0.00000
496.0  0.00000
496.1  0.00000
496.2  0.00000
496.3  0.00000
496.4  0.00000
496.5  0.00000
496.6  0.00000
496.7  0.00000
496.8  0.00000
496.9  0.00000
497.0  0.00000
497.1  0.00000
497.2  0.00000
497.3  0.00000
497.4  0.00000
497.5  0.00000
497.6  0.00000
497.7  0.00000
497.8  0.00000
497.9  0.00000
498.0  0.00000
498.1  0.00000
498.2  0.00000
498.3  0.00000
498.4  0.00000
498.5  0.00000
498.6  0.00000
498.7  0.00000
498.8  0.00000
498.9  0.00000
499.0  0.00000
499.1  0.00000
499.2  0.00000
499.3  0.00000
499.4  0.00000
499.5  0.00000
499.6  0.00000
499.7  0.00000
499.8  0.00000
499.9  0.00000
500.0  0.00000
500.1  0.00000
500.2  0.00000
500.3  0.00000
500.4  0.00000
500.5  0.00000
500.6  0.00000
500.7  0.00000
500.8  0.00000
500.9  0.00000
501.0  0.00000
501.1  0.00000
501.2  0.00000
501.3  0.00000
501.4  0.00000
501.5  0.00000
501.6  0.00000
501.7  0.00000
501.8  0.00000
501.9  0.00000
502.0  0.00000
502.1  0.00000
502.2  0.00000
502.3  0.00000
502.4  0.00000
502.5  0.00000
502.6  0.00000
502.7  0.00000
502.8  0.00000
502.9  0.00000
503.0  0.00000
503.1  0.00000
503.2  0.00000
503.3  0.00000
503.4  0.00000
503.5  0.00000
503.6  0.00000
503.7  0.00000
503.8  0.00000
503.9  0.00000
504.0  0.00000
504.1  0.00000
504.2  0.00000
504.3  0.00000
504.4  0.00000
504.5  0.00000
504.6  0.00000
504.7  0.00000
504.8  0.00000
504.9  0.00000
505.0  0.00000
505.1  0.00000
505.2  0.00000
505.3  0.00000
505.4  0.00000
505.5  0.00000
505.6  0.00000
505.7  0.00000
505.8  0.00000
505.9  0.00000
506.0  0.00000
506.1  0.00000
506.2  0.00000
506.3  0.00000
506.4  0.00000
506.5  0.00000
506.6  0.00000
506.7  0.00000
506.8  0.00000
506.9  0.00000
507.0  0.00000
507.1  0.00000
507.2  0.00000
507.3  0.00000
507.4  0.00000
507.5  0.00000
507.6  0.00000
507.7  0.00000
507.8  0.00000
507.9  0.00000
508.0  0.00001
508.1  0.00001
508.2  0.00001
508.3  0.00001
508.4  0.00001
508.5  0.00001
508.6  0.00001
508.7  0.00002
508.8  0.00002
508.9  0.00003
509.0  0.00004
509.1  0.00005
509.2  0.00007
509.3  0.00010
509.4  0.00013
509.5  0.00014
509.6  0.00014
509.7  0.00013
509.8  0.00010
509.9  0.00008
510.0  0.00006
510.1  0.00004
510.2  0.00003
510.3  0.00003
510.4  0.00002
510.5  0.00002
510.6  0.00002
510.7  0.00001
510.8  0.00001
510.9  0.00001
511.0  0.00001
511.1  0.00001
511.2  0.00001
511.3  0.00001
511.4  0.00001
511.5  0.00001
511.6  0.00001
511.7  0.00001
511.8  0.00001
511.9  0.00001
512.0  0.00000
512.1  0.00000
512.2  0.00000
512.3  0.00000
512.4  0.00000
512.5  0.00000
512.6  0.00000
512.7  0.00000
512.8  0.00000
512.9  0.00000
513.0  0.00000
513.1  0.00000
513.2  0.00000
513.3  0.00000
513.4  0.00000
513.5  0.00000
513.6  0.00000
513.7  0.00000
513.8  0.00000
513.9  0.00000
514.0  0.00000
514.1  0.00000
514.2  0.00000
514.3  0.00000
514.4  0.00000
514.5  0.00000
514.6  0.00000
514.7  0.00000
514.8  0.00000
514.9  0.00001
515.0  0.00001
515.1  0.00001
515.2  0.00001
515.3  0.00001
515.4  0.00001
515.5  0.00001
515.6  0.00001
515.7  0.00001
515.8  0.00001
515.9  0.00001
516.0  0.00001
516.1  0.00001
516.2  0.00001
516.3  0.00001
516.4  0.00001
516.5  0.00001
516.6  0.00001
516.7  0.00001
516.8  0.00001
516.9  0.00001
517.0  0.00001
517.1  0.00001
517.2  0.00001
517.3  0.00001
517.4  0.00001
517.5  0.00001
517.6  0.00001
517.7  0.00001
517.8  0.00001
517.9  0.00001
518.0  0.00001
518.1  0.00001
518.2  0.00001
518.3  0.00001
518.4  0.00001
518.5  0.00001
518.6  0.00002
518.7  0.00002
518.8  0.00002
518.9  0.00002
519.0  0.00002
519.1  0.00002
519.2  0.00002
519.3  0.00002
519.4  0.00002
519.5  0.00002
519.6  0.00002
519.7  0.00002
519.8  0.00002
519.9  0.00002
520.0  0.00002
520.1  0.00002
520.2  0.00002
520.3  0.00002
520.4  0.00002
520.5  0.00002
520.6  0.00002
520.7  0.00002
520.8  0.00002
520.9  0.00002
521.0  0.00001
521.1  0.00001
521.2  0.00001
521.3  0.00001
521.4  0.00001
521.5  0.00001
521.6  0.00001
521.7  0.00001
521.8  0.00001
521.9  0.00001
522.0  0.00001
522.1  0.00001
522.2  0.00001
522.3  0.00001
522.4  0.00001
522.5  0.00001
522.6  0.00000
522.7  0.00000
522.8  0.00000
522.9  0.00000
523.0  0.00000
523.1  0.00000
523.2  0.00000
523.3  0.00000
523.4  0.00000
523.5  0.00000
523.6  0.00000
523.7  0.00000
523.8  0.00000
523.9  0.00000
524.0  0.00000
524.1  0.00000
524.2  0.00000
524.3  0.00000
524.4  0.00000
524.5  0.00000
524.6  0.00000
524.7  0.00000
524.8  0.00000
524.9  0.00000
525.0  0.00000
525.1  0.00000
525.2  0.00000
525.3  0.00000
525.4  0.00000
525.5  0.00000
525.6  0.00000
525.7  0.00000
525.8  0.00000
525.9  0.00000
526.0  0.00000
526.1  0.00000
526.2  0.00000
526.3  0.00000
526.4  0.00000
526.5  0.00000
526.6  0.00000
526.7  0.00000
526.8  0.00000
526.9  0.00000
527.0  0.00000
527.1  0.00000
527.2  0.00000
527.3  0.00000
527.4  0.00000
527.5  0.00000
527.6  0.00000
527.7  0.00000
527.8  0.00000
527.9  0.00000
528.0  0.00000
528.1  0.00000
528.2  0.00000
528.3  0.00000
528.4  0.00000
528.5  0.00000
528.6  0.00000
528.7  0.00000
528.8  0.00000
528.9  0.00000
529.0  0.00000
529.1  0.00000
529.2  0.00000
529.3  0.00000
529.4  0.00000
529.5  0.00000
529.6  0.00000
529.7  0.00000
529.8  0.00000
529.9  0.00000
530.0  0.00000
530.1  0.00000
530.2  0.00000
530.3  0.00000
530.4  0.00000
530.5  0.00000
530.6  0.00000
530.7  0.00000
530.8  0.00000
530.9  0.00000
531.0  0.00000
531.1  0.00000
531.2  0.00000
531.3  0.00000
531.4  0.00000
531.5  0.00000
531.6  0.00000
531.7  0.00000
531.8  0.00000
531.9  0.00000
532.0  0.00000
532.1  0.00000
532.2  0.00000
532.3  0.00000
532.4  0.00000
532.5  0.00000
532.6  0.00000
532.7  0.00000
532.8  0.00000
532.9  0.00000
533.0  0.00000
533.1  0.00000
533.2  0.00000
533.3  0.00000
533.4  0.00000
533.5  0.00000
533.6  0.00000
533.7  0.00000
533.8  0.00000
533.9  0.00000
534.0  0.00000
534.1  0.00000
534.2  0.00000
534.3  0.00000
534.4  0.00000
534.5  0.00000
534.6  0.00000
534.7  0.00000
534.8  0.00000
534.9  0.00000
535.0  0.00000
535.1  0.00000
535.2  0.00000
535.3  0.00000
535.4  0.00000
535.5  0.00000
535.6  0.00000
535.7  0.00000
535.8  0.00000
535.9  0.00000
536.0  0.00000
536.1  0.00000
536.2  0.00000
536.3  0.00000
536.4  0.00000
536.5  0.00000
536.6  0.00000
536.7  0.00000
536.8  0.00000
536.9  0.00000
537.0  0.00000
537.1  0.00000
537.2  0.00000
537.3  0.00000
537.4  0.00000
537.5  0.00000
537.6  0.00000
537.7  0.00000
537.8  0.00000
537.9  0.00000
538.0  0.00000
538.1  0.00000
538.2  0.00000
538.3  0.00000
538.4  0.00000
538.5  0.00000
538.6  0.00000
538.7  0.00000
538.8  0.00000
538.9  0.00000
539.0  0.00000
539.1  0.00000
539.2  0.00000
539.3  0.00000
539.4  0.00000
539.5  0.00000
539.6  0.00000
539.7  0.00000
539.8  0.00000
539.9  0.00000
540.0  0.00000
540.1  0.00000
540.2  0.00000
540.3  0.00000
540.4  0.00000
540.5  0.00000
540.6  0.00000
540.7  0.00000
540.8  0.00000
540.9  0.00000
541.0  0.00000
541.1  0.00000
541.2  0.00000
541.3  0.00000
541.4  0.00000
541.5  0.00000
541.6  0.00000
541.7  0.00000
541.8  0.00000
541.9  0.00000
542.0  0.00000
542.1  0.00000
542.2  0.00000
542.3  0.00000
542.4  0.00000
542.5  0.00000
542.6  0.00000
542.7  0.00000
542.8  0.00000
542.9  0.00000
543.0  0.00000
543.1  0.00000
543.2  0.00000
543.3  0.00000
543.4  0.00000
543.5  0.00000
543.6  0.00000
543.7  0.00000
543.8  0.00000
543.9  0.00000
544.0  0.00000
544.1  0.00000
544.2  0.00000
544.3  0.00000
544.4  0.00000
544.5  0.00000
544.6  0.00000
544.7  0.00000
544.8  0.00000
544.9  0.00000
545.0  0.00000
545.1  0.00000
545.2  0.00000
545.3  0.00000
545.4  0.00000
545.5  0.00000
545.6  0.00000
545.7  0.00000
545.8  0.00000
545.9  0.00000
546.0  0.00000
546.1  0.00000
546.2  0.00000
546.3  0.00000
546.4  0.00000
546.5  0.00000
546.6  0.00000
546.7  0.00000
546.8  0.00000
546.9  0.00000
547.0  0.00000
547.1  0.00000
547.2  0.00000
547.3  0.00000
547.4  0.00000
547.5  0.00000
547.6  0.00000
547.7  0.00000
547.8  0.00000
547.9  0.00000
548.0  0.00000
548.1  0.00000
548.2  0.00000
548.3  0.00000
548.4  0.00000
548.5  0.00000
548.6  0.00000
548.7  0.00000
548.8  0.00000
548.9  0.00000
549.0  0.00000
549.1  0.00000
549.2  0.00000
549.3  0.00000
549.4  0.00000
549.5  0.00000
549.6  0.00000
549.7  0.00000
549.8  0.00000
549.9  0.00000
550.0  0.00000
550.1  0.00000
550.2  0.00000
550.3  0.00000
550.4  0.00000
550.5  0.00000
550.6  0.00000
550.7  0.00000
550.8  0.00000
550.9  0.00000
551.0  0.00000
551.1  0.00000
551.2  0.00000
551.3  0.00000
551.4  0.00000
551.5  0.00000
551.6  0.00000
551.7  0.00000
551.8  0.00000
551.9  0.00000
552.0  0.00000
552.1  0.00000
552.2  0.00000
552.3  0.00000
552.4  0.00000
552.5  0.00000
552.6  0.00000
552.7  0.00000
552.8  0.00000
552.9  0.00000
553.0  0.00000
553.1  0.00000
553.2  0.00000
553.3  0.00000
553.4  0.00000
553.5  0.00000
553.6  0.00000
553.7  0.00000
553.8  0.00000
553.9  0.00000
554.0  0.00000
554.1  0.00000
554.2  0.00000
554.3  0.00000
554.4  0.00000
554.5  0.00000
554.6  0.00000
554.7  0.00000
554.8  0.00000
554.9  0.00000
555.0  0.00000
555.1  0.00000
555.2  0.00000
555.3  0.00000
555.4  0.00000
555.5  0.00000
555.6  0.00000
555.7  0.00000
555.8  0.00000
555.9  0.00000
556.0  0.00000
556.1  0.00000
556.2  0.00000
556.3  0.00000
556.4  0.00000
556.5  0.00000
556.6  0.00000
556.7  0.00000
556.8  0.00000
556.9  0.00000
557.0  0.00000
557.1  0.00000
557.2  0.00000
557.3  0.00000
557.4  0.00000
557.5  0.00000
557.6  0.00000
557.7  0.00000
557.8  0.00000
557.9  0.00000
558.0  0.00000
558.1  0.00000
558.2  0.00000
558.3  0.00000
558.4  0.00000
558.5  0.00000
558.6  0.00000
558.7  0.00000
558.8  0.00000
558.9  0.00000
559.0  0.00000
559.1  0.00000
559.2  0.00000
559.3  0.00000
559.4  0.00001
559.5  0.00001
559.6  0.00001
559.7  0.00001
559.8  0.00001
559.9  0.00001
560.0  0.00001
560.1  0.00001
560.2  0.00001
560.3  0.00001
560.4  0.00001
560.5  0.00001
560.6  0.00001
560.7  0.00001
560.8  0.00001
560.9  0.00001
561.0  0.00001
561.1  0.00001
561.2  0.00001
561.3  0.00001
561.4  0.00001
561.5  0.00001
561.6  0.00001
561.7  0.00001
561.8  0.00001
561.9  0.00001
562.0  0.00001
562.1  0.00001
562.2  0.00001
562.3  0.00001
562.4  0.00001
562.5  0.00001
562.6  0.00001
562.7  0.00001
562.8  0.00001
562.9  0.00001
563.0  0.00001
563.1  0.00001
563.2  0.00001
563.3  0.00001
563.4  0.00001
563.5  0.00001
563.6  0.00001
563.7  0.00001
563.8  0.00001
563.9  0.00001
564.0  0.00001
564.1  0.00001
564.2  0.00001
564.3  0.00001
564.4  0.00001
564.5  0.00001
564.6  0.00001
564.7  0.00001
564.8  0.00001
564.9  0.00001
565.0  0.00001
565.1  0.00001
565.2  0.00001
565.3  0.00001
565.4  0.00001
565.5  0.00001
565.6  0.00001
565.7  0.00001
565.8  0.00001
565.9  0.00001
566.0  0.00001
566.1  0.00001
566.2  0.00001
566.3  0.00001
566.4  0.00001
566.5  0.00001
566.6  0.00001
566.7  0.00001
566.8  0.00001
566.9  0.00001
567.0  0.00001
567.1  0.00001
567.2  0.00001
567.3  0.00001
567.4  0.00001
567.5  0.00001
567.6  0.00001
567.7  0.00001
567.8  0.00001
567.9  0.00001
568.0  0.00001
568.1  0.00001
568.2  0.00001
568.3  0.00001
568.4  0.00001
568.5  0.00001
568.6  0.00001
568.7  0.00001
568.8  0.00001
568.9  0.00001
569.0  0.00001
569.1  0.00001
569.2  0.00001
569.3  0.00001
569.4  0.00001
569.5  0.00001
569.6  0.00000
569.7  0.00000
569.8  0.00000
569.9  0.00000
570.0  0.00000
570.1  0.00000
570.2  0.00000
570.3  0.00000
570.4  0.00000
570.5  0.00000
570.6  0.00000
570.7  0.00000
570.8  0.00000
570.9  0.00000
571.0  0.00000
571.1  0.00000
571.2  0.00000
571.3  0.00000
571.4  0.00000
571.5  0.00001
571.6  0.00001
571.7  0.00001
571.8  0.00001
571.9  0.00001
572.0  0.00001
572.1  0.00001
572.2  0.00001
572.3  0.00001
572.4  0.00001
572.5  0.00001
572.6  0.00001
572.7  0.00001
572.8  0.00001
572.9  0.00001
573.0  0.00001
573.1  0.00001
573.2  0.00001
573.3  0.00001
573.4  0.00001
573.5  0.00001
573.6  0.00001
573.7  0.00001
573.8  0.00001
573.9  0.00001
574.0  0.00001
574.1  0.00001
574.2  0.00001
574.3  0.00001
574.4  0.00001
574.5  0.00001
574.6  0.00001
574.7  0.00001
574.8  0.00001
574.9  0.00001
575.0  0.00001
575.1  0.00001
575.2  0.00001
575.3  0.00001
575.4  0.00001
575.5  0.00001
575.6  0.00001
575.7  0.00001
575.8  0.00001
575.9  0.00001
576.0  0.00001
576.1  0.00001
576.2  0.00001
576.3  0.00001
576.4  0.00001
576.5  0.00001
576.6  0.00001
576.7  0.00001
576.8  0.00001
576.9  0.00002
577.0  0.00002
577.1  0.00002
577.2  0.00002
577.3  0.00002
577.4  0.00002
577.5  0.00002
577.6  0.00002
577.7  0.00002
577.8  0.00002
577.9  0.00002
578.0  0.00002
578.1  0.00002
578.2  0.00002
578.3  0.00002
578.4  0.00002
578.5  0.00002
578.6  0.00002
578.7  0.00002
578.8  0.00002
578.9  0.00002
579.0  0.00002
579.1  0.00002
579.2  0.00002
579.3  0.00002
579.4  0.00002
579.5  0.00002
579.6  0.00002
579.7  0.00002
579.8  0.00002
579.9  0.00002
580.0  0.00002
580.1  0.00002
580.2  0.00002
580.3  0.00002
580.4  0.00002
580.5  0.00002
580.6  0.00002
580.7  0.00002
580.8  0.00002
580.9  0.00002
581.0  0.00002
581.1  0.00002
581.2  0.00002
581.3  0.00002
581.4  0.00002
581.5  0.00002
581.6  0.00002
581.7  0.00002
581.8  0.00002
581.9  0.00002
582.0  0.00002
582.1  0.00002
582.2  0.00002
582.3  0.00002
582.4  0.00002
582.5  0.00002
582.6  0.00002
582.7  0.00002
582.8  0.00002
582.9  0.00002
583.0  0.00001
583.1  0.00001
583.2  0.00001
583.3  0.00001
583.4  0.00001
583.5  0.00001
583.6  0.00001
583.7  0.00001
583.8  0.00001
583.9  0.00001
584.0  0.00001
584.1  0.00001
584.2  0.00001
584.3  0.00001
584.4  0.00001
584.5  0.00001
584.6  0.00001
584.7  0.00001
584.8  0.00001
584.9  0.00001
585.0  0.00001
585.1  0.00001
585.2  0.00001
585.3  0.00001
585.4  0.00001
585.5  0.00001
585.6  0.00001
585.7  0.00001
585.8  0.00001
585.9  0.00001
586.0  0.00001
586.1  0.00001
586.2  0.00001
586.3  0.00001
586.4  0.00002
586.5  0.00002
586.6  0.00002
586.7  0.00002
586.8  0.00002
586.9  0.00002
587.0  0.00002
587.1  0.00002
587.2  0.00002
587.3  0.00002
587.4  0.00002
587.5  0.00002
587.6  0.00002
587.7  0.00002
587.8  0.00002
587.9  0.00002
588.0  0.00002
588.1  0.00002
588.2  0.00002
588.3  0.00002
588.4  0.00002
588.5  0.00002
588.6  0.00002
588.7  0.00002
588.8  0.00002
588.9  0.00002
589.0  0.00002
589.1  0.00002
589.2  0.00002
589.3  0.00002
589.4  0.00002
589.5  0.00002
589.6  0.00003
589.7  0.00003
589.8  0.00003
589.9  0.00003
590.0  0.00003
590.1  0.00003
590.2  0.00003
590.3  0.00003
590.4  0.00003
590.5  0.00003
590.6  0.00003
590.7  0.00003
590.8  0.00003
590.9  0.00004
591.0  0.00004
591.1  0.00004
591.2  0.00004
591.3  0.00004
591.4  0.00004
591.5  0.00004
591.6  0.00004
591.7  0.00004
591.8  0.00004
591.9  0.00004
592.0  0.00004
592.1  0.00004
592.2  0.00005
592.3  0.00005
592.4  0.00005
592.5  0.00005
592.6  0.00005
592.7  0.00006
592.8  0.00006
592.9  0.00006
593.0  0.00007
593.1  0.00007
593.2  0.00007
593.3  0.00007
593.4  0.00007
593.5  0.00007
593.6  0.00007
593.7  0.00006
593.8  0.00006
593.9  0.00006
594.0  0.00006
594.1  0.00006
594.2  0.00006
594.3  0.00007
594.4  0.00007
594.5  0.00007
594.6  0.00008
594.7  0.00009
594.8  0.00010
594.9  0.00011
595.0  0.00013
595.1  0.00012
595.2  0.00012
595.3  0.00011
595.4  0.00010
595.5  0.00009
595.6  0.00009
595.7  0.00008
595.8  0.00007
595.9  0.00007
596.0  0.00006
596.1  0.00005
596.2  0.00005
596.3  0.00004
596.4  0.00004
596.5  0.00004
596.6  0.00003
596.7  0.00003
596.8  0.00003
596.9  0.00002
597.0  0.00002
597.1  0.00002
597.2  0.00003
597.3  0.00003
597.4  0.00003
597.5  0.00004
597.6  0.00004
597.7  0.00005
597.8  0.00007
597.9  0.00011
598.0  0.00023
598.1  0.00011
598.2  0.00007
598.3  0.00005
598.4  0.00004
598.5  0.00003
598.6  0.00003
598.7  0.00002
598.8  0.00002
598.9  0.00002
599.0  0.00002
599.1  0.00002
599.2  0.00002
599.3  0.00002
599.4  0.00003
599.5  0.00003
599.6  0.00004
599.7  0.00004
599.8  0.00006
599.9  0.00010
600.0  0.00023
600.1  0.00010
600.2  0.00006
600.3  0.00005
600.4  0.00004
600.5  0.00003
600.6  0.00003
600.7  0.00002
600.8  0.00002
600.9  0.00002
601.0  0.00002
601.1  0.00002
601.2  0.00002
601.3  0.00002
601.4  0.00002
601.5  0.00002
601.6  0.00003
601.7  0.00003
601.8  0.00003
601.9  0.00003
602.0  0.00004
602.1  0.00004
602.2  0.00004
602.3  0.00004
602.4  0.00005
602.5  0.00005
602.6  0.00006
602.7  0.00006
602.8  0.00007
602.9  0.00008
603.0  0.00009
603.1  0.00007
603.2  0.00006
603.3  0.00005
603.4  0.00004
603.5  0.00003
603.6  0.00003
603.7  0.00002
603.8  0.00002
603.9  0.00002
604.0  0.00002
604.1  0.00002
604.2  0.00002
604.3  0.00002
604.4  0.00002
604.5  0.00002
604.6  0.00002
604.7  0.00003
604.8  0.00003
604.9  0.00005
605.0  0.00012
605.1  0.00003
605.2  0.00001
605.3  0.00001
605.4  0.00001
605.5  0.00000
605.6  0.00000
605.7  0.00000
605.8  0.00000
605.9  0.00000
606.0  0.00000
606.1  0.00000
606.2  0.00000
606.3  0.00000
606.4  0.00000
606.5  0.00000
606.6  0.00000
606.7  0.00000
606.8  0.00001
606.9  0.00001
607.0  0.00005
607.1  0.00004
607.2  0.00003
607.3  0.00002
607.4  0.00002
607.5  0.00001
607.6  0.00001
607.7  0.00001
607.8  0.00001
607.9  0.00001
608.0  0.00001
608.1  0.00001
608.2  0.00001
608.3  0.00001
608.4  0.00001
608.5  0.00001
608.6  0.00001
608.7  0.00001
608.8  0.00001
608.9  0.00001
609.0  0.00001
609.1  0.00001
609.2  0.00001
609.3  0.00001
609.4  0.00001
609.5  0.00001
609.6  0.00001
609.7  0.00001
609.8  0.00001
609.9  0.00002
610.0  0.00002
610.1  0.00001
610.2  0.00001
610.3  0.00001
610.4  0.00001
610.5  0.00000
610.6  0.00000
610.7  0.00000
610.8  0.00000
610.9  0.00000
611.0  0.00000
611.1  0.00000
611.2  0.00000
611.3  0.00000
611.4  0.00000
611.5  0.00000
611.6  0.00001
611.7  0.00001
611.8  0.00001
611.9  0.00001
612.0  0.00002
612.1  0.00001
612.2  0.00001
612.3  0.00001
612.4  0.00000
612.5  0.00000
612.6  0.00000
612.7  0.00000
612.8  0.00000
612.9  0.00000
613.0  0.00000
613.1  0.00000
613.2  0.00000
613.3  0.00000
613.4  0.00000
613.5  0.00001
613.6  0.00001
613.7  0.00001
613.8  0.00001
613.9  0.00001
614.0  0.00002
614.1  0.00002
614.2  0.00002
614.3  0.00002
614.4  0.00002
614.5  0.00002
614.6  0.00003
614.7  0.00003
614.8  0.00003
614.9  0.00003
615.0  0.00003
615.1  0.00002
615.2  0.00001
615.3  0.00001
615.4  0.00001
615.5  0.00001
615.6  0.00001
615.7  0.00001
615.8  0.00001
615.9  0.00001
616.0  0.00001
616.1  0.00001
616.2  0.00001
616.3  0.00001
616.4  0.00001
616.5  0.00001
616.6  0.00002
616.7  0.00002
616.8  0.00003
616.9  0.00004
617.0  0.00005
617.1  0.00004
617.2  0.00003
617.3  0.00002
617.4  0.00002
617.5  0.00002
617.6  0.00002
617.7  0.00002
617.8  0.00001
617.9  0.00001
618.0  0.00001
618.1  0.00001
618.2  0.00001
618.3  0.00002
618.4  0.00002
618.5  0.00002
618.6  0.00002
618.7  0.00002
618.8  0.00003
618.9  0.00003
619.0  0.00004
619.1  0.00003
619.2  0.00003
619.3  0.00003
619.4  0.00003
619.5  0.00003
619.6  0.00003
619.7  0.00002
619.8  0.00002
619.9  0.00002
620.0  0.00002
620.1  0.00002
620.2  0.00002
620.3  0.00002
620.4  0.00002
620.5  0.00002
620.6  0.00002
620.7  0.00001
620.8  0.00001
620.9  0.00001
621.0  0.00001
621.1  0.00001
621.2  0.00001
621.3  0.00001
621.4  0.00001
621.5  0.00001
621.6  0.00001
621.7  0.00001
621.8  0.00001
621.9  0.00001
622.0  0.00001
622.1  0.00001
622.2  0.00001
622.3  0.00001
622.4  0.00001
622.5  0.00001
622.6  0.00001
622.7  0.00001
622.8  0.00000
622.9  0.00000
623.0  0.00000
623.1  0.00000
623.2  0.00000
623.3  0.00000
623.4  0.00000
623.5  0.00000
623.6  0.00001
623.7  0.00001
623.8  0.00001
623.9  0.00001
624.0  0.00001
624.1  0.00001
624.2  0.00000
624.3  0.00000
624.4  0.00000
624.5  0.00000
624.6  0.00000
624.7  0.00000
624.8  0.00000
624.9  0.00000
625.0  0.00000
625.1  0.00000
625.2  0.00000
625.3  0.00000
625.4  0.00000
625.5  0.00000
625.6  0.00000
625.7  0.00000
625.8  0.00000
625.9  0.00000
626.0  0.00000
626.1  0.00000
626.2  0.00000
626.3  0.00000
626.4  0.00000
626.5  0.00000
626.6  0.00000
626.7  0.00000
626.8  0.00000
626.9  0.00000
627.0  0.00000
627.1  0.00001
627.2  0.00001
627.3  0.00001
627.4  0.00001
627.5  0.00001
627.6  0.00001
627.7  0.00001
627.8  0.00001
627.9  0.00001
628.0  0.00001
628.1  0.00001
628.2  0.00001
628.3  0.00001
628.4  0.00001
628.5  0.00001
628.6  0.00001
628.7  0.00001
628.8  0.00001
628.9  0.00001
629.0  0.00001
629.1  0.00001
629.2  0.00001
629.3  0.00001
629.4  0.00001
629.5  0.00001
629.6  0.00001
629.7  0.00001
629.8  0.00001
629.9  0.00001
630.0  0.00001
630.1  0.00001
630.2  0.00001
630.3  0.00001
630.4  0.00001
630.5  0.00001
630.6  0.00001
630.7  0.00001
630.8  0.00001
630.9  0.00001
631.0  0.00001
631.1  0.00001
631.2  0.00001
631.3  0.00001
631.4  0.00001
631.5  0.00001
631.6  0.00001
631.7  0.00001
631.8  0.00001
631.9  0.00001
632.0  0.00001
632.1  0.00001
632.2  0.00001
632.3  0.00002
632.4  0.00002
632.5  0.00002
632.6  0.00002
632.7  0.00002
632.8  0.00002
632.9  0.00002
633.0  0.00002
633.1  0.00002
633.2  0.00002
633.3  0.00002
633.4  0.00002
633.5  0.00002
633.6  0.00002
633.7  0.00002
633.8  0.00002
633.9  0.00001
634.0  0.00001
634.1  0.00001
634.2  0.00001
634.3  0.00001
634.4  0.00001
634.5  0.00001
634.6  0.00001
634.7  0.00001
634.8  0.00001
634.9  0.00001
635.0  0.00001
635.1  0.00001
635.2  0.00001
635.3  0.00001
635.4  0.00001
635.5  0.00001
635.6  0.00001
635.7  0.00001
635.8  0.00001
635.9  0.00001
636.0  0.00001
636.1  0.00001
636.2  0.00001
636.3  0.00001
636.4  0.00001
636.5  0.00001
636.6  0.00001
636.7  0.00001
636.8  0.00001
636.9  0.00001
637.0  0.00001
637.1  0.00001
637.2  0.00001
637.3  0.00001
637.4  0.00001
637.5  0.00001
637.6  0.00001
637.7  0.00001
637.8  0.00001
637.9  0.00001
638.0  0.00001
638.1  0.00001
638.2  0.00001
638.3  0.00001
638.4  0.00001
638.5  0.00001
638.6  0.00001
638.7  0.00001
638.8  0.00001
638.9  0.00001
639.0  0.00001
639.1  0.00001
639.2  0.00001
639.3  0.00001
639.4  0.00001
639.5  0.00001
639.6  0.00001
639.7  0.00001
639.8  0.00001
639.9  0.00001
640.0  0.00001
640.1  0.00001
640.2  0.00001
640.3  0.00001
640.4  0.00001
640.5  0.00001
640.6  0.00001
640.7  0.00001
640.8  0.00001
640.9  0.00001
641.0  0.00001
641.1  0.00001
641.2  0.00001
641.3  0.00001
641.4  0.00001
641.5  0.00001
641.6  0.00001
641.7  0.00001
641.8  0.00001
641.9  0.00001
642.0  0.00001
642.1  0.00001
642.2  0.00001
642.3  0.00001
642.4  0.00001
642.5  0.00001
642.6  0.00001
642.7  0.00001
642.8  0.00001
642.9  0.00001
643.0  0.00001
643.1  0.00001
643.2  0.00001
643.3  0.00001
643.4  0.00001
643.5  0.00001
643.6  0.00001
643.7  0.00001
643.8  0.00001
643.9  0.00001
644.0  0.00001
644.1  0.00001
644.2  0.00001
644.3  0.00001
644.4  0.00001
644.5  0.00001
644.6  0.00001
644.7  0.00001
644.8  0.00001
644.9  0.00001
645.0  0.00001
645.1  0.00001
645.2  0.00001
645.3  0.00001
645.4  0.00001
645.5  0.00001
645.6  0.00001
645.7  0.00001
645.8  0.00001
645.9  0.00002
646.0  0.00002
646.1  0.00002
646.2  0.00002
646.3  0.00002
646.4  0.00002
646.5  0.00002
646.6  0.00002
646.7  0.00002
646.8  0.00002
646.9  0.00002
647.0  0.00002
647.1  0.00002
647.2  0.00002
647.3  0.00002
647.4  0.00002
647.5  0.00002
647.6  0.00002
647.7  0.00002
647.8  0.00002
647.9  0.00003
648.0  0.00003
648.1  0.00003
648.2  0.00003
648.3  0.00003
648.4  0.00003
648.5  0.00003
648.6  0.00003
648.7  0.00003
648.8  0.00003
648.9  0.00003
649.0  0.00003
649.1  0.00003
649.2  0.00003
649.3  0.00003
649.4  0.00003
649.5  0.00003
649.6  0.00003
649.7  0.00003
649.8  0.00003
649.9  0.00003
650.0  0.00003
650.1  0.00003
650.2  0.00003
650.3  0.00003
650.4  0.00003
650.5  0.00003
650.6  0.00004
650.7  0.00004
650.8  0.00004
650.9  0.00004
651.0  0.00004
651.1  0.00004
651.2  0.00004
651.3  0.00004
651.4  0.00004
651.5  0.00004
651.6  0.00004
651.7  0.00004
651.8  0.00004
651.9  0.00004
652.0  0.00004
652.1  0.00004
652.2  0.00004
652.3  0.00004
652.4  0.00004
652.5  0.00004
652.6  0.00004
652.7  0.00004
652.8  0.00004
652.9  0.00004
653.0  0.00004
653.1  0.00004
653.2  0.00004
653.3  0.00004
653.4  0.00004
653.5  0.00004
653.6  0.00004
653.7  0.00004
653.8  0.00004
653.9  0.00004
654.0  0.00004
654.1  0.00004
654.2  0.00004
654.3  0.00004
654.4  0.00004
654.5  0.00004
654.6  0.00004
654.7  0.00004
654.8  0.00004
654.9  0.00004
655.0  0.00004
655.1  0.00004
655.2  0.00004
655.3  0.00004
655.4  0.00004
655.5  0.00005
655.6  0.00005
655.7  0.00005
655.8  0.00005
655.9  0.00005
656.0  0.00005
656.1  0.00005
656.2  0.00005
656.3  0.00005
656.4  0.00005
656.5  0.00005
656.6  0.00005
656.7  0.00005
656.8  0.00006
656.9  0.00006
657.0  0.00006
657.1  0.00006
657.2  0.00006
657.3  0.00006
657.4  0.00006
657.5  0.00006
657.6  0.00006
657.7  0.00007
657.8  0.00007
657.9  0.00007
658.0  0.00007
658.1  0.00007
658.2  0.00007
658.3  0.00008
658.4  0.00008
658.5  0.00008
658.6  0.00008
658.7  0.00008
658.8  0.00008
658.9  0.00009
659.0  0.00009
659.1  0.00009
659.2  0.00009
659.3  0.00010
659.4  0.00010
659.5  0.00010
659.6  0.00010
659.7  0.00011
659.8  0.00011
659.9  0.00011
660.0  0.00012
660.1  0.00012
660.2  0.00012
660.3  0.00013
660.4  0.00013
660.5  0.00013
660.6  0.00014
660.7  0.00014
660.8  0.00015
660.9  0.00015
661.0  0.00015
661.1  0.00016
661.2  0.00016
661.3  0.00017
661.4  0.00017
661.5  0.00018
661.6  0.00018
661.7  0.00019
661.8  0.00020
661.9  0.00020
662.0  0.00021
662.1  0.00022
662.2  0.00022
662.3  0.00023
662.4  0.00024
662.5  0.00024
662.6  0.00025
662.7  0.00026
662.8  0.00027
662.9  0.00028
663.0  0.00029
663.1  0.00030
663.2  0.00031
663.3  0.00032
663.4  0.00033
663.5  0.00034
663.6  0.00035
663.7  0.00036
663.8  0.00037
663.9  0.00038
664.0  0.00040
664.1  0.00041
664.2  0.00042
664.3  0.00044
664.4  0.00045
664.5  0.00047
664.6  0.00048
664.7  0.00050
664.8  0.00051
664.9  0.00053
665.0  0.00055
665.1  0.00057
665.2  0.00059
665.3  0.00061
665.4  0.00063
665.5  0.00065
665.6  0.00067
665.7  0.00069
665.8  0.00072
665.9  0.00074
666.0  0.00077
666.1  0.00079
666.2  0.00082
666.3  0.00085
666.4  0.00088
666.5  0.00091
666.6  0.00094
666.7  0.00097
666.8  0.00100
666.9  0.00104
667.0  0.00108
667.1  0.00112
667.2  0.00115
667.3  0.00120
667.4  0.00124
667.5  0.00128
667.6  0.00133
667.7  0.00138
667.8  0.00143
667.9  0.00148
668.0  0.00154
668.1  0.00160
668.2  0.00166
668.3  0.00172
668.4  0.00179
668.5  0.00186
668.6  0.00193
668.7  0.00201
668.8  0.00209
668.9  0.00217
669.0  0.00226
669.1  0.00235
669.2  0.00244
669.3  0.00254
669.4  0.00265
669.5  0.00276
669.6  0.00288
669.7  0.00300
669.8  0.00313
669.9  0.00327
670.0  0.00341
670.1  0.00356
670.2  0.00372
670.3  0.00389
670.4  0.00406
670.5  0.00425
670.6  0.00445
670.7  0.00465
670.8  0.00487
670.9  0.00511
671.0  0.00535
671.1  0.00561
671.2  0.00589
671.3  0.00618
671.4  0.00648
671.5  0.00681
671.6  0.00716
671.7  0.00753
671.8  0.00792
671.9  0.00833
672.0  0.00878
672.1  0.00925
672.2  0.00975
672.3  0.01028
672.4  0.01085
672.5  0.01145
672.6  0.01210
672.7  0.01279
672.8  0.01352
672.9  0.01431
673.0  0.01515
673.1  0.01605
673.2  0.01702
673.3  0.01805
673.4  0.01916
673.5  0.02035
673.6  0.02162
673.7  0.02299
673.8  0.02447
673.9  0.02606
674.0  0.02776
674.1  0.02960
674.2  0.03159
674.3  0.03373
674.4  0.03605
674.5  0.03855
674.6  0.04126
674.7  0.04420
674.8  0.04738
674.9  0.05083
675.0  0.05458
675.1  0.05865
675.2  0.06308
675.3  0.06791
675.4  0.07318
675.5  0.07892
675.6  0.08520
675.7  0.09207
675.8  0.09959
675.9  0.10784
676.0  0.11689
676.1  0.12682
676.2  0.13775
676.3  0.14979
676.4  0.16307
676.5  0.17774
676.6  0.19397
676.7  0.21196
676.8  0.23191
676.9  0.25410
677.0  0.27879
677.1  0.30637
677.2  0.33720
677.3  0.37168
677.4  0.41036
677.5  0.45378
677.6  0.50265
677.7  0.55779
677.8  0.62005
677.9  0.69060
678.0  0.77061
678.1  0.86142
678.2  0.96497
678.3  1.08321
678.4  1.21869
678.5  1.37414
678.6  1.55307
678.7  1.75969
678.8  1.99864
678.9  2.27607
679.0  2.59867
679.1  2.97507
679.2  3.41573
679.3  3.93240
679.4  4.54056
679.5  5.25734
679.6  6.10462
679.7  7.10891
679.8  8.29990
679.9  9.71573
680.0  11.39764
680.1  13.39588
680.2  15.76791
680.3  18.57158
680.4  21.87293
680.5  25.72702
680.6  30.18282
680.7  35.26706
680.8  40.95892
680.9  47.19776
681.0  53.84455
681.1  60.70671
681.2  67.53954
681.3  74.06311
681.4  80.03031
681.5  85.23477
681.6  89.56390
681.7  92.99270
681.8  95.56818
681.9  97.39941
682.0  98.61816
682.1  99.36526
682.2  99.77015
682.3  99.94263
682.4  99.97105
682.5  99.92165
682.6  99.84129
682.7  99.76060
682.8  99.69757
682.9  99.66034
683.0  99.65023
683.1  99.66375
683.2  99.69513
683.3  99.73737
683.4  99.78372
683.5  99.82835
683.6  99.86710
683.7  99.89754
683.8  99.91885
683.9  99.93138
684.0  99.93581
684.1  99.93204
684.2  99.91753
684.3  99.88577
684.4  99.82391
684.5  99.71072
684.6  99.51383
684.7  99.18732
684.8  98.67052
684.9  97.88564
685.0  96.74161
685.1  95.13914
685.2  92.97086
685.3  90.14609
685.4  86.59553
685.5  82.30294
685.6  77.30529
685.7  71.70290
685.8  65.66468
685.9  59.38449
686.0  53.08318
686.1  46.95507
686.2  41.15810
686.3  35.81368
686.4  30.98125
686.5  26.69028
686.6  22.92862
686.7  19.66335
686.8  16.85444
686.9  14.44866
687.0  12.39843
687.1  10.65400
687.2  9.17064
687.3  7.91106
687.4  6.83961
687.5  5.92827
687.6  5.15142
687.7  4.48759
687.8  3.91985
687.9  3.43259
688.0  3.01392
688.1  2.65246
688.2  2.34004
688.3  2.06965
688.4  1.83475
688.5  1.63043
688.6  1.45215
688.7  1.29613
688.8  1.15942
688.9  1.03922
689.0  0.93341
689.1  0.84031
689.2  0.75787
689.3  0.68480
689.4  0.61982
689.5  0.56200
689.6  0.51041
689.7  0.46427
689.8  0.42298
689.9  0.38592
690.0  0.35264
690.1  0.32264
690.2  0.29557
690.3  0.27116
690.4  0.24907
690.5  0.22907
690.6  0.21094
690.7  0.19447
690.8  0.17950
690.9  0.16585
691.0  0.15342
691.1  0.14209
691.2  0.13172
691.3  0.12224
691.4  0.11355
691.5  0.10558
691.6  0.09826
691.7  0.09153
691.8  0.08533
691.9  0.07962
692.0  0.07436
692.1  0.06949
692.2  0.06500
692.3  0.06084
692.4  0.05699
692.5  0.05343
692.6  0.05012
692.7  0.04706
692.8  0.04421
692.9  0.04156
693.0  0.03910
693.1  0.03681
693.2  0.03468
693.3  0.03269
693.4  0.03084
693.5  0.02911
693.6  0.02749
693.7  0.02598
693.8  0.02456
693.9  0.02324
694.0  0.02200
694.1  0.02083
694.2  0.01974
694.3  0.01872
694.4  0.01775
694.5  0.01685
694.6  0.01600
694.7  0.01520
694.8  0.01445
694.9  0.01374
695.0  0.01308
695.1  0.01245
695.2  0.01186
695.3  0.01130
695.4  0.01077
695.5  0.01028
695.6  0.00981
695.7  0.00936
695.8  0.00894
695.9  0.00854
696.0  0.00817
696.1  0.00781
696.2  0.00747
696.3  0.00715
696.4  0.00685
696.5  0.00656
696.6  0.00629
696.7  0.00603
696.8  0.00579
696.9  0.00555
697.0  0.00533
697.1  0.00512
697.2  0.00492
697.3  0.00473
697.4  0.00454
697.5  0.00437
697.6  0.00420
697.7  0.00405
697.8  0.00390
697.9  0.00375
698.0  0.00362
698.1  0.00349
698.2  0.00336
698.3  0.00324
698.4  0.00313
698.5  0.00302
698.6  0.00292
698.7  0.00282
698.8  0.00272
698.9  0.00263
699.0  0.00255
699.1  0.00246
699.2  0.00238
699.3  0.00231
699.4  0.00223
699.5  0.00216
699.6  0.00210
699.7  0.00203
699.8  0.00197
699.9  0.00191
700.0  0.00185
700.1  0.00180
700.2  0.00175
700.3  0.00170
700.4  0.00165
700.5  0.00160
700.6  0.00156
700.7  0.00151
700.8  0.00147
700.9  0.00143
701.0  0.00139
701.1  0.00136
701.2  0.00132
701.3  0.00129
701.4  0.00125
701.5  0.00122
701.6  0.00119
701.7  0.00116
701.8  0.00113
701.9  0.00110
702.0  0.00108
702.1  0.00105
702.2  0.00102
702.3  0.00100
702.4  0.00098
702.5  0.00095
702.6  0.00093
702.7  0.00091
702.8  0.00089
702.9  0.00087
703.0  0.00085
703.1  0.00083
703.2  0.00081
703.3  0.00080
703.4  0.00078
703.5  0.00076
703.6  0.00075
703.7  0.00073
703.8  0.00072
703.9  0.00070
704.0  0.00069
704.1  0.00067
704.2  0.00066
704.3  0.00065
704.4  0.00064
704.5  0.00062
704.6  0.00061
704.7  0.00060
704.8  0.00059
704.9  0.00058
705.0  0.00057
705.1  0.00055
705.2  0.00054
705.3  0.00053
705.4  0.00052
705.5  0.00052
705.6  0.00051
705.7  0.00050
705.8  0.00049
705.9  0.00048
706.0  0.00047
706.1  0.00046
706.2  0.00045
706.3  0.00045
706.4  0.00044
706.5  0.00043
706.6  0.00042
706.7  0.00042
706.8  0.00041
706.9  0.00040
707.0  0.00039
707.1  0.00039
707.2  0.00038
707.3  0.00037
707.4  0.00037
707.5  0.00036
707.6  0.00036
707.7  0.00035
707.8  0.00034
707.9  0.00034
708.0  0.00033
708.1  0.00033
708.2  0.00032
708.3  0.00031
708.4  0.00031
708.5  0.00030
708.6  0.00030
708.7  0.00029
708.8  0.00029
708.9  0.00028
709.0  0.00028
709.1  0.00027
709.2  0.00027
709.3  0.00026
709.4  0.00026
709.5  0.00026
709.6  0.00025
709.7  0.00025
709.8  0.00024
709.9  0.00024
710.0  0.00023
710.1  0.00023
710.2  0.00023
710.3  0.00022
710.4  0.00022
710.5  0.00021
710.6  0.00021
710.7  0.00021
710.8  0.00020
710.9  0.00020
711.0  0.00020
711.1  0.00019
711.2  0.00019
711.3  0.00019
711.4  0.00018
711.5  0.00018
711.6  0.00018
711.7  0.00017
711.8  0.00017
711.9  0.00017
712.0  0.00016
712.1  0.00016
712.2  0.00016
712.3  0.00016
712.4  0.00015
712.5  0.00015
712.6  0.00015
712.7  0.00015
712.8  0.00014
712.9  0.00014
713.0  0.00014
713.1  0.00014
713.2  0.00013
713.3  0.00013
713.4  0.00013
713.5  0.00013
713.6  0.00012
713.7  0.00012
713.8  0.00012
713.9  0.00012
714.0  0.00012
714.1  0.00011
714.2  0.00011
714.3  0.00011
714.4  0.00011
714.5  0.00011
714.6  0.00010
714.7  0.00010
714.8  0.00010
714.9  0.00010
715.0  0.00010
715.1  0.00010
715.2  0.00009
715.3  0.00009
715.4  0.00009
715.5  0.00009
715.6  0.00009
715.7  0.00009
715.8  0.00009
715.9  0.00009
716.0  0.00008
716.1  0.00008
716.2  0.00008
716.3  0.00008
716.4  0.00008
716.5  0.00008
716.6  0.00008
716.7  0.00008
716.8  0.00007
716.9  0.00007
717.0  0.00007
717.1  0.00007
717.2  0.00007
717.3  0.00007
717.4  0.00007
717.5  0.00007
717.6  0.00007
717.7  0.00007
717.8  0.00007
717.9  0.00006
718.0  0.00006
718.1  0.00006
718.2  0.00006
718.3  0.00006
718.4  0.00006
718.5  0.00006
718.6  0.00006
718.7  0.00006
718.8  0.00006
718.9  0.00006
719.0  0.00006
719.1  0.00006
719.2  0.00006
719.3  0.00005
719.4  0.00005
719.5  0.00005
719.6  0.00005
719.7  0.00005
719.8  0.00005
719.9  0.00005
720.0  0.00005
720.1  0.00005
720.2  0.00005
720.3  0.00005
720.4  0.00005
720.5  0.00005
720.6  0.00005
720.7  0.00005
720.8  0.00005
720.9  0.00005
721.0  0.00005
721.1  0.00005
721.2  0.00005
721.3  0.00005
721.4  0.00005
721.5  0.00005
721.6  0.00005
721.7  0.00004
721.8  0.00004
721.9  0.00004
722.0  0.00004
722.1  0.00004
722.2  0.00004
722.3  0.00004
722.4  0.00004
722.5  0.00004
722.6  0.00004
722.7  0.00004
722.8  0.00004
722.9  0.00004
723.0  0.00004
723.1  0.00004
723.2  0.00004
723.3  0.00004
723.4  0.00004
723.5  0.00004
723.6  0.00004
723.7  0.00004
723.8  0.00004
723.9  0.00004
724.0  0.00004
724.1  0.00004
724.2  0.00004
724.3  0.00004
724.4  0.00004
724.5  0.00004
724.6  0.00004
724.7  0.00004
724.8  0.00004
724.9  0.00004
725.0  0.00004
725.1  0.00004
725.2  0.00004
725.3  0.00004
725.4  0.00004
725.5  0.00004
725.6  0.00004
725.7  0.00004
725.8  0.00004
725.9  0.00004
726.0  0.00004
726.1  0.00004
726.2  0.00004
726.3  0.00004
726.4  0.00004
726.5  0.00004
726.6  0.00004
726.7  0.00004
726.8  0.00004
726.9  0.00004
727.0  0.00004
727.1  0.00004
727.2  0.00004
727.3  0.00004
727.4  0.00004
727.5  0.00004
727.6  0.00004
727.7  0.00004
727.8  0.00004
727.9  0.00004
728.0  0.00004
728.1  0.00005
728.2  0.00005
728.3  0.00005
728.4  0.00005
728.5  0.00005
728.6  0.00005
728.7  0.00005
728.8  0.00005
728.9  0.00005
729.0  0.00005
729.1  0.00005
729.2  0.00005
729.3  0.00005
729.4  0.00005
729.5  0.00005
729.6  0.00005
729.7  0.00005
729.8  0.00005
729.9  0.00005
730.0  0.00005
730.1  0.00005
730.2  0.00005
730.3  0.00005
730.4  0.00005
730.5  0.00005
730.6  0.00005
730.7  0.00005
730.8  0.00005
730.9  0.00005
731.0  0.00005
731.1  0.00005
731.2  0.00005
731.3  0.00006
731.4  0.00006
731.5  0.00006
731.6  0.00006
731.7  0.00006
731.8  0.00006
731.9  0.00006
732.0  0.00006
732.1  0.00006
732.2  0.00006
732.3  0.00006
732.4  0.00006
732.5  0.00006
732.6  0.00006
732.7  0.00006
732.8  0.00006
732.9  0.00006
733.0  0.00006
733.1  0.00006
733.2  0.00006
733.3  0.00006
733.4  0.00006
733.5  0.00006
733.6  0.00006
733.7  0.00006
733.8  0.00006
733.9  0.00006
734.0  0.00005
734.1  0.00005
734.2  0.00005
734.3  0.00005
734.4  0.00005
734.5  0.00005
734.6  0.00005
734.7  0.00005
734.8  0.00005
734.9  0.00005
735.0  0.00005
735.1  0.00005
735.2  0.00005
735.3  0.00005
735.4  0.00005
735.5  0.00005
735.6  0.00005
735.7  0.00005
735.8  0.00005
735.9  0.00005
736.0  0.00005
736.1  0.00004
736.2  0.00004
736.3  0.00004
736.4  0.00004
736.5  0.00004
736.6  0.00004
736.7  0.00004
736.8  0.00004
736.9  0.00004
737.0  0.00004
737.1  0.00004
737.2  0.00004
737.3  0.00004
737.4  0.00004
737.5  0.00004
737.6  0.00004
737.7  0.00004
737.8  0.00004
737.9  0.00003
738.0  0.00003
738.1  0.00003
738.2  0.00003
738.3  0.00003
738.4  0.00003
738.5  0.00003
738.6  0.00003
738.7  0.00003
738.8  0.00003
738.9  0.00003
739.0  0.00003
739.1  0.00003
739.2  0.00003
739.3  0.00003
739.4  0.00003
739.5  0.00003
739.6  0.00003
739.7  0.00003
739.8  0.00003
739.9  0.00003
740.0  0.00003
740.1  0.00003
740.2  0.00003
740.3  0.00003
740.4  0.00003
740.5  0.00003
740.6  0.00003
740.7  0.00003
740.8  0.00002
740.9  0.00002
741.0  0.00002
741.1  0.00002
741.2  0.00002
741.3  0.00002
741.4  0.00002
741.5  0.00002
741.6  0.00002
741.7  0.00002
741.8  0.00002
741.9  0.00002
742.0  0.00002
742.1  0.00002
742.2  0.00002
742.3  0.00002
742.4  0.00002
742.5  0.00002
742.6  0.00002
742.7  0.00002
742.8  0.00002
742.9  0.00002
743.0  0.00002
743.1  0.00002
743.2  0.00002
743.3  0.00002
743.4  0.00002
743.5  0.00002
743.6  0.00002
743.7  0.00002
743.8  0.00002
743.9  0.00002
744.0  0.00002
744.1  0.00002
744.2  0.00002
744.3  0.00002
744.4  0.00002
744.5  0.00002
744.6  0.00002
744.7  0.00002
744.8  0.00002
744.9  0.00002
745.0  0.00002
745.1  0.00002
745.2  0.00002
745.3  0.00002
745.4  0.00002
745.5  0.00002
745.6  0.00002
745.7  0.00002
745.8  0.00002
745.9  0.00002
746.0  0.00002
746.1  0.00002
746.2  0.00002
746.3  0.00002
746.4  0.00002
746.5  0.00002
746.6  0.00002
746.7  0.00002
746.8  0.00002
746.9  0.00002
747.0  0.00002
747.1  0.00002
747.2  0.00003
747.3  0.00003
747.4  0.00003
747.5  0.00003
747.6  0.00003
747.7  0.00003
747.8  0.00003
747.9  0.00003
748.0  0.00003
748.1  0.00003
748.2  0.00003
748.3  0.00003
748.4  0.00003
748.5  0.00003
748.6  0.00003
748.7  0.00003
748.8  0.00003
748.9  0.00003
749.0  0.00003
749.1  0.00003
749.2  0.00003
749.3  0.00003
749.4  0.00003
749.5  0.00004
749.6  0.00004
749.7  0.00004
749.8  0.00004
749.9  0.00004
750.0  0.00004
750.1  0.00004
750.2  0.00004
750.3  0.00004
750.4  0.00004
750.5  0.00004
750.6  0.00004
750.7  0.00005
750.8  0.00005
750.9  0.00005
751.0  0.00005
751.1  0.00005
751.2  0.00005
751.3  0.00005
751.4  0.00005
751.5  0.00006
751.6  0.00006
751.7  0.00006
751.8  0.00006
751.9  0.00006
752.0  0.00006
752.1  0.00006
752.2  0.00007
752.3  0.00007
752.4  0.00007
752.5  0.00007
752.6  0.00007
752.7  0.00008
752.8  0.00008
752.9  0.00008
753.0  0.00008
753.1  0.00009
753.2  0.00009
753.3  0.00009
753.4  0.00009
753.5  0.00010
753.6  0.00010
753.7  0.00010
753.8  0.00010
753.9  0.00010
754.0  0.00011
754.1  0.00011
754.2  0.00011
754.3  0.00011
754.4  0.00012
754.5  0.00012
754.6  0.00012
754.7  0.00012
754.8  0.00012
754.9  0.00013
755.0  0.00013
755.1  0.00013
755.2  0.00013
755.3  0.00013
755.4  0.00013
755.5  0.00013
755.6  0.00013
755.7  0.00013
755.8  0.00013
755.9  0.00013
756.0  0.00013
756.1  0.00013
756.2  0.00013
756.3  0.00013
756.4  0.00013
756.5  0.00013
756.6  0.00012
756.7  0.00012
756.8  0.00012
756.9  0.00012
757.0  0.00012
757.1  0.00011
757.2  0.00011
757.3  0.00011
757.4  0.00011
757.5  0.00011
757.6  0.00010
757.7  0.00010
757.8  0.00010
757.9  0.00010
758.0  0.00010
758.1  0.00009
758.2  0.00009
758.3  0.00009
758.4  0.00009
758.5  0.00009
758.6  0.00008
758.7  0.00008
758.8  0.00008
758.9  0.00008
759.0  0.00008
759.1  0.00008
759.2  0.00007
759.3  0.00007
759.4  0.00007
759.5  0.00007
759.6  0.00007
759.7  0.00007
759.8  0.00007
759.9  0.00006
760.0  0.00006
760.1  0.00006
760.2  0.00006
760.3  0.00006
760.4  0.00006
760.5  0.00006
760.6  0.00006
760.7  0.00006
760.8  0.00006
760.9  0.00005
761.0  0.00005
761.1  0.00005
761.2  0.00005
761.3  0.00005
761.4  0.00005
761.5  0.00005
761.6  0.00005
761.7  0.00005
761.8  0.00005
761.9  0.00005
762.0  0.00005
762.1  0.00005
762.2  0.00005
762.3  0.00005
762.4  0.00005
762.5  0.00005
762.6  0.00005
762.7  0.00004
762.8  0.00004
762.9  0.00004
763.0  0.00004
763.1  0.00004
763.2  0.00004
763.3  0.00004
763.4  0.00004
763.5  0.00004
763.6  0.00004
763.7  0.00004
763.8  0.00004
763.9  0.00004
764.0  0.00004
764.1  0.00004
764.2  0.00004
764.3  0.00004
764.4  0.00004
764.5  0.00004
764.6  0.00004
764.7  0.00004
764.8  0.00004
764.9  0.00004
765.0  0.00004
765.1  0.00004
765.2  0.00004
765.3  0.00004
765.4  0.00004
765.5  0.00004
765.6  0.00004
765.7  0.00004
765.8  0.00004
765.9  0.00004
766.0  0.00004
766.1  0.00004
766.2  0.00004
766.3  0.00004
766.4  0.00004
766.5  0.00004
766.6  0.00004
766.7  0.00004
766.8  0.00004
766.9  0.00004
767.0  0.00004
767.1  0.00004
767.2  0.00004
767.3  0.00005
767.4  0.00005
767.5  0.00005
767.6  0.00005
767.7  0.00005
767.8  0.00005
767.9  0.00005
768.0  0.00005
768.1  0.00005
768.2  0.00005
768.3  0.00005
768.4  0.00005
768.5  0.00005
768.6  0.00005
768.7  0.00005
768.8  0.00005
768.9  0.00005
769.0  0.00005
769.1  0.00006
769.2  0.00006
769.3  0.00006
769.4  0.00006
769.5  0.00006
769.6  0.00006
769.7  0.00006
769.8  0.00006
769.9  0.00006
770.0  0.00006
770.1  0.00006
770.2  0.00007
770.3  0.00007
770.4  0.00007
770.5  0.00007
770.6  0.00007
770.7  0.00007
770.8  0.00007
770.9  0.00008
771.0  0.00008
771.1  0.00008
771.2  0.00008
771.3  0.00008
771.4  0.00008
771.5  0.00009
771.6  0.00009
771.7  0.00009
771.8  0.00009
771.9  0.00009
772.0  0.00010
772.1  0.00010
772.2  0.00010
772.3  0.00010
772.4  0.00011
772.5  0.00011
772.6  0.00011
772.7  0.00012
772.8  0.00012
772.9  0.00012
773.0  0.00013
773.1  0.00013
773.2  0.00013
773.3  0.00014
773.4  0.00014
773.5  0.00014
773.6  0.00015
773.7  0.00015
773.8  0.00016
773.9  0.00016
774.0  0.00017
774.1  0.00017
774.2  0.00018
774.3  0.00018
774.4  0.00019
774.5  0.00020
774.6  0.00020
774.7  0.00021
774.8  0.00022
774.9  0.00022
775.0  0.00023
775.1  0.00024
775.2  0.00025
775.3  0.00025
775.4  0.00026
775.5  0.00027
775.6  0.00028
775.7  0.00029
775.8  0.00030
775.9  0.00031
776.0  0.00032
776.1  0.00033
776.2  0.00034
776.3  0.00035
776.4  0.00036
776.5  0.00037
776.6  0.00038
776.7  0.00039
776.8  0.00040
776.9  0.00041
777.0  0.00042
777.1  0.00042
777.2  0.00043
777.3  0.00044
777.4  0.00045
777.5  0.00046
777.6  0.00047
777.7  0.00047
777.8  0.00048
777.9  0.00048
778.0  0.00049
778.1  0.00049
778.2  0.00050
778.3  0.00050
778.4  0.00050
778.5  0.00051
778.6  0.00051
778.7  0.00051
778.8  0.00051
778.9  0.00050
779.0  0.00050
779.1  0.00050
779.2  0.00050
779.3  0.00049
779.4  0.00049
779.5  0.00049
779.6  0.00048
779.7  0.00048
779.8  0.00047
779.9  0.00047
780.0  0.00046
780.1  0.00046
780.2  0.00045
780.3  0.00044
780.4  0.00044
780.5  0.00043
780.6  0.00043
780.7  0.00042
780.8  0.00041
780.9  0.00041
781.0  0.00040
781.1  0.00039
781.2  0.00039
781.3  0.00038
781.4  0.00038
781.5  0.00037
781.6  0.00037
781.7  0.00036
781.8  0.00035
781.9  0.00035
782.0  0.00034
782.1  0.00034
782.2  0.00033
782.3  0.00033
782.4  0.00033
782.5  0.00032
782.6  0.00032
782.7  0.00031
782.8  0.00031
782.9  0.00031
783.0  0.00030
783.1  0.00030
783.2  0.00029
783.3  0.00029
783.4  0.00029
783.5  0.00029
783.6  0.00028
783.7  0.00028
783.8  0.00028
783.9  0.00027
784.0  0.00027
784.1  0.00027
784.2  0.00027
784.3  0.00026
784.4  0.00026
784.5  0.00026
784.6  0.00026
784.7  0.00026
784.8  0.00025
784.9  0.00025
785.0  0.00025
785.1  0.00025
785.2  0.00025
785.3  0.00025
785.4  0.00025
785.5  0.00025
785.6  0.00024
785.7  0.00024
785.8  0.00024
785.9  0.00024
786.0  0.00024
786.1  0.00024
786.2  0.00024
786.3  0.00024
786.4  0.00024
786.5  0.00024
786.6  0.00024
786.7  0.00024
786.8  0.00024
786.9  0.00024
787.0  0.00024
787.1  0.00024
787.2  0.00024
787.3  0.00024
787.4  0.00024
787.5  0.00024
787.6  0.00024
787.7  0.00024
787.8  0.00024
787.9  0.00024
788.0  0.00024
788.1  0.00024
788.2  0.00024
788.3  0.00024
788.4  0.00024
788.5  0.00024
788.6  0.00024
788.7  0.00024
788.8  0.00024
788.9  0.00024
789.0  0.00024
789.1  0.00024
789.2  0.00024
789.3  0.00024
789.4  0.00024
789.5  0.00025
789.6  0.00025
789.7  0.00025
789.8  0.00025
789.9  0.00025
790.0  0.00025
790.1  0.00025
790.2  0.00025
790.3  0.00025
790.4  0.00026
790.5  0.00026
790.6  0.00026
790.7  0.00026
790.8  0.00026
790.9  0.00026
791.0  0.00026
791.1  0.00026
791.2  0.00027
791.3  0.00027
791.4  0.00027
791.5  0.00027
791.6  0.00027
791.7  0.00027
791.8  0.00027
791.9  0.00028
792.0  0.00028
792.1  0.00028
792.2  0.00028
792.3  0.00028
792.4  0.00028
792.5  0.00028
792.6  0.00029
792.7  0.00029
792.8  0.00029
792.9  0.00029
793.0  0.00029
793.1  0.00029
793.2  0.00029
793.3  0.00030
793.4  0.00030
793.5  0.00030
793.6  0.00030
793.7  0.00030
793.8  0.00030
793.9  0.00030
794.0  0.00030
794.1  0.00031
794.2  0.00031
794.3  0.00031
794.4  0.00031
794.5  0.00031
794.6  0.00031
794.7  0.00031
794.8  0.00031
794.9  0.00031
795.0  0.00031
795.1  0.00031
795.2  0.00031
795.3  0.00032
795.4  0.00032
795.5  0.00032
795.6  0.00032
795.7  0.00032
795.8  0.00032
795.9  0.00032
796.0  0.00032
796.1  0.00032
796.2  0.00032
796.3  0.00032
796.4  0.00032
796.5  0.00031
796.6  0.00031
796.7  0.00031
796.8  0.00031
796.9  0.00031
797.0  0.00031
797.1  0.00031
797.2  0.00031
797.3  0.00031
797.4  0.00031
797.5  0.00031
797.6  0.00030
797.7  0.00030
797.8  0.00030
797.9  0.00030
798.0  0.00030
798.1  0.00030
798.2  0.00030
798.3  0.00029
798.4  0.00029
798.5  0.00029
798.6  0.00029
798.7  0.00029
798.8  0.00028
798.9  0.00028
799.0  0.00028
799.1  0.00028
799.2  0.00028
799.3  0.00027
799.4  0.00027
799.5  0.00027
799.6  0.00027
799.7  0.00027
799.8  0.00026
799.9  0.00026
800.0  0.00026
800.1  0.00026
800.2  0.00025
800.3  0.00025
800.4  0.00025
800.5  0.00025
800.6  0.00024
800.7  0.00024
800.8  0.00024
800.9  0.00024
801.0  0.00023
801.1  0.00023
801.2  0.00023
801.3  0.00023
801.4  0.00022
801.5  0.00022
801.6  0.00022
801.7  0.00022
801.8  0.00021
801.9  0.00021
802.0  0.00021
802.1  0.00021
802.2  0.00021
802.3  0.00020
802.4  0.00020
802.5  0.00020
802.6  0.00020
802.7  0.00019
802.8  0.00019
802.9  0.00019
803.0  0.00019
803.1  0.00019
803.2  0.00018
803.3  0.00018
803.4  0.00018
803.5  0.00018
803.6  0.00018
803.7  0.00017
803.8  0.00017
803.9  0.00017
804.0  0.00017
804.1  0.00017
804.2  0.00016
804.3  0.00016
804.4  0.00016
804.5  0.00016
804.6  0.00016
804.7  0.00015
804.8  0.00015
804.9  0.00015
805.0  0.00015
805.1  0.00015
805.2  0.00015
805.3  0.00014
805.4  0.00014
805.5  0.00014
805.6  0.00014
805.7  0.00014
805.8  0.00014
805.9  0.00014
806.0  0.00013
806.1  0.00013
806.2  0.00013
806.3  0.00013
806.4  0.00013
806.5  0.00013
806.6  0.00013
806.7  0.00012
806.8  0.00012
806.9  0.00012
807.0  0.00012
807.1  0.00012
807.2  0.00012
807.3  0.00012
807.4  0.00012
807.5  0.00011
807.6  0.00011
807.7  0.00011
807.8  0.00011
807.9  0.00011
808.0  0.00011
808.1  0.00011
808.2  0.00011
808.3  0.00011
808.4  0.00011
808.5  0.00010
808.6  0.00010
808.7  0.00010
808.8  0.00010
808.9  0.00010
809.0  0.00010
809.1  0.00010
809.2  0.00010
809.3  0.00010
809.4  0.00010
809.5  0.00010
809.6  0.00009
809.7  0.00009
809.8  0.00009
809.9  0.00009
810.0  0.00009
810.1  0.00009
810.2  0.00009
810.3  0.00009
810.4  0.00009
810.5  0.00009
810.6  0.00009
810.7  0.00009
810.8  0.00009
810.9  0.00008
811.0  0.00008
811.1  0.00008
811.2  0.00008
811.3  0.00008
811.4  0.00008
811.5  0.00008
811.6  0.00008
811.7  0.00008
811.8  0.00008
811.9  0.00008
812.0  0.00008
812.1  0.00008
812.2  0.00008
812.3  0.00008
812.4  0.00008
812.5  0.00008
812.6  0.00008
812.7  0.00007
812.8  0.00007
812.9  0.00007
813.0  0.00007
813.1  0.00007
813.2  0.00007
813.3  0.00007
813.4  0.00007
813.5  0.00007
813.6  0.00007
813.7  0.00007
813.8  0.00007
813.9  0.00007
814.0  0.00007
814.1  0.00007
814.2  0.00007
814.3  0.00007
814.4  0.00007
814.5  0.00007
814.6  0.00007
814.7  0.00007
814.8  0.00007
814.9  0.00007
815.0  0.00007
815.1  0.00006
815.2  0.00006
815.3  0.00006
815.4  0.00006
815.5  0.00006
815.6  0.00006
815.7  0.00006
815.8  0.00006
815.9  0.00006
816.0  0.00006
816.1  0.00006
816.2  0.00006
816.3  0.00006
816.4  0.00006
816.5  0.00006
816.6  0.00006
816.7  0.00006
816.8  0.00006
816.9  0.00006
817.0  0.00006
817.1  0.00006
817.2  0.00006
817.3  0.00006
817.4  0.00006
817.5  0.00006
817.6  0.00006
817.7  0.00006
817.8  0.00006
817.9  0.00006
818.0  0.00006
818.1  0.00006
818.2  0.00006
818.3  0.00006
818.4  0.00006
818.5  0.00005
818.6  0.00005
818.7  0.00005
818.8  0.00005
818.9  0.00005
819.0  0.00005
819.1  0.00005
819.2  0.00005
819.3  0.00005
819.4  0.00005
819.5  0.00005
819.6  0.00005
819.7  0.00005
819.8  0.00005
819.9  0.00005
820.0  0.00005
820.1  0.00005
820.2  0.00005
820.3  0.00005
820.4  0.00005
820.5  0.00005
820.6  0.00005
820.7  0.00005
820.8  0.00005
820.9  0.00005
821.0  0.00005
821.1  0.00005
821.2  0.00005
821.3  0.00005
821.4  0.00005
821.5  0.00005
821.6  0.00005
821.7  0.00005
821.8  0.00005
821.9  0.00005
822.0  0.00005
822.1  0.00005
822.2  0.00005
822.3  0.00005
822.4  0.00005
822.5  0.00005
822.6  0.00005
822.7  0.00005
822.8  0.00005
822.9  0.00005
823.0  0.00004
823.1  0.00004
823.2  0.00004
823.3  0.00004
823.4  0.00004
823.5  0.00004
823.6  0.00004
823.7  0.00004
823.8  0.00004
823.9  0.00004
824.0  0.00004
824.1  0.00004
824.2  0.00004
824.3  0.00004
824.4  0.00004
824.5  0.00004
824.6  0.00004
824.7  0.00004
824.8  0.00004
824.9  0.00004
825.0  0.00004
825.1  0.00004
825.2  0.00004
825.3  0.00004
825.4  0.00004
825.5  0.00004
825.6  0.00004
825.7  0.00004
825.8  0.00004
825.9  0.00004
826.0  0.00004
826.1  0.00004
826.2  0.00004
826.3  0.00004
826.4  0.00004
826.5  0.00004
826.6  0.00004
826.7  0.00004
826.8  0.00004
826.9  0.00004
827.0  0.00004
827.1  0.00004
827.2  0.00004
827.3  0.00004
827.4  0.00004
827.5  0.00004
827.6  0.00004
827.7  0.00004
827.8  0.00003
827.9  0.00003
828.0  0.00003
828.1  0.00003
828.2  0.00003
828.3  0.00003
828.4  0.00003
828.5  0.00003
828.6  0.00003
828.7  0.00003
828.8  0.00003
828.9  0.00003
829.0  0.00003
829.1  0.00003
829.2  0.00003
829.3  0.00003
829.4  0.00003
829.5  0.00003
829.6  0.00003
829.7  0.00003
829.8  0.00003
829.9  0.00003
830.0  0.00003
830.1  0.00003
830.2  0.00003
830.3  0.00003
830.4  0.00003
830.5  0.00003
830.6  0.00003
830.7  0.00003
830.8  0.00003
830.9  0.00003
831.0  0.00003
831.1  0.00003
831.2  0.00003
831.3  0.00003
831.4  0.00003
831.5  0.00003
831.6  0.00003
831.7  0.00003
831.8  0.00003
831.9  0.00003
832.0  0.00003
832.1  0.00003
832.2  0.00003
832.3  0.00003
832.4  0.00003
832.5  0.00003
832.6  0.00003
832.7  0.00003
832.8  0.00003
832.9  0.00003
833.0  0.00003
833.1  0.00003
833.2  0.00003
833.3  0.00003
833.4  0.00003
833.5  0.00003
833.6  0.00003
833.7  0.00003
833.8  0.00003
833.9  0.00002
834.0  0.00002
834.1  0.00002
834.2  0.00002
834.3  0.00002
834.4  0.00002
834.5  0.00002
834.6  0.00002
834.7  0.00002
834.8  0.00002
834.9  0.00002
835.0  0.00002
835.1  0.00002
835.2  0.00002
835.3  0.00002
835.4  0.00002
835.5  0.00002
835.6  0.00002
835.7  0.00002
835.8  0.00002
835.9  0.00002
836.0  0.00002
836.1  0.00002
836.2  0.00002
836.3  0.00002
836.4  0.00002
836.5  0.00002
836.6  0.00002
836.7  0.00002
836.8  0.00002
836.9  0.00002
837.0  0.00002
837.1  0.00002
837.2  0.00002
837.3  0.00002
837.4  0.00002
837.5  0.00002
837.6  0.00002
837.7  0.00002
837.8  0.00002
837.9  0.00002
838.0  0.00002
838.1  0.00002
838.2  0.00002
838.3  0.00002
838.4  0.00002
838.5  0.00002
838.6  0.00002
838.7  0.00002
838.8  0.00002
838.9  0.00002
839.0  0.00002
839.1  0.00002
839.2  0.00002
839.3  0.00002
839.4  0.00002
839.5  0.00002
839.6  0.00002
839.7  0.00002
839.8  0.00002
839.9  0.00002
840.0  0.00002
840.1  0.00002
840.2  0.00002
840.3  0.00002
840.4  0.00002
840.5  0.00002
840.6  0.00002
840.7  0.00002
840.8  0.00002
840.9  0.00002
841.0  0.00002
841.1  0.00002
841.2  0.00002
841.3  0.00002
841.4  0.00002
841.5  0.00002
841.6  0.00002
841.7  0.00002
841.8  0.00002
841.9  0.00002
842.0  0.00002
842.1  0.00002
842.2  0.00002
842.3  0.00002
842.4  0.00002
842.5  0.00002
842.6  0.00002
842.7  0.00002
842.8  0.00002
842.9  0.00002
843.0  0.00002
843.1  0.00002
843.2  0.00002
843.3  0.00002
843.4  0.00002
843.5  0.00002
843.6  0.00002
843.7  0.00002
843.8  0.00002
843.9  0.00002
844.0  0.00002
844.1  0.00002
844.2  0.00002
844.3  0.00002
844.4  0.00002
844.5  0.00002
844.6  0.00002
844.7  0.00002
844.8  0.00002
844.9  0.00002
845.0  0.00002
845.1  0.00002
845.2  0.00002
845.3  0.00002
845.4  0.00002
845.5  0.00002
845.6  0.00002
845.7  0.00002
845.8  0.00002
845.9  0.00002
846.0  0.00002
846.1  0.00002
846.2  0.00002
846.3  0.00002
846.4  0.00002
846.5  0.00002
846.6  0.00002
846.7  0.00002
846.8  0.00002
846.9  0.00002
847.0  0.00002
847.1  0.00002
847.2  0.00002
847.3  0.00002
847.4  0.00002
847.5  0.00002
847.6  0.00002
847.7  0.00002
847.8  0.00002
847.9  0.00002
848.0  0.00002
848.1  0.00002
848.2  0.00002
848.3  0.00002
848.4  0.00002
848.5  0.00002
848.6  0.00002
848.7  0.00002
848.8  0.00002
848.9  0.00002
849.0  0.00002
849.1  0.00002
849.2  0.00002
849.3  0.00002
849.4  0.00002
849.5  0.00002
849.6  0.00002
849.7  0.00002
849.8  0.00002
849.9  0.00002
850.0  0.00002
850.1  0.00002
850.2  0.00002
850.3  0.00002
850.4  0.00003
850.5  0.00003
850.6  0.00003
850.7  0.00003
850.8  0.00003
850.9  0.00003
851.0  0.00003
851.1  0.00003
851.2  0.00003
851.3  0.00003
851.4  0.00003
851.5  0.00003
851.6  0.00003
851.7  0.00003
851.8  0.00003
851.9  0.00003
852.0  0.00003
852.1  0.00003
852.2  0.00003
852.3  0.00003
852.4  0.00003
852.5  0.00003
852.6  0.00003
852.7  0.00003
852.8  0.00003
852.9  0.00003
853.0  0.00003
853.1  0.00003
853.2  0.00003
853.3  0.00003
853.4  0.00003
853.5  0.00003
853.6  0.00003
853.7  0.00003
853.8  0.00003
853.9  0.00003
854.0  0.00003
854.1  0.00003
854.2  0.00003
854.3  0.00003
854.4  0.00003
854.5  0.00003
854.6  0.00003
854.7  0.00003
854.8  0.00003
854.9  0.00003
855.0  0.00003
855.1  0.00003
855.2  0.00003
855.3  0.00003
855.4  0.00003
855.5  0.00003
855.6  0.00003
855.7  0.00003
855.8  0.00003
855.9  0.00003
856.0  0.00003
856.1  0.00003
856.2  0.00003
856.3  0.00003
856.4  0.00003
856.5  0.00003
856.6  0.00003
856.7  0.00003
856.8  0.00003
856.9  0.00003
857.0  0.00003
857.1  0.00003
857.2  0.00003
857.3  0.00003
857.4  0.00003
857.5  0.00003
857.6  0.00003
857.7  0.00003
857.8  0.00003
857.9  0.00003
858.0  0.00003
858.1  0.00003
858.2  0.00003
858.3  0.00003
858.4  0.00003
858.5  0.00003
858.6  0.00003
858.7  0.00003
858.8  0.00003
858.9  0.00003
859.0  0.00003
859.1  0.00003
859.2  0.00003
859.3  0.00003
859.4  0.00003
859.5  0.00003
859.6  0.00003
859.7  0.00003
859.8  0.00003
859.9  0.00003
860.0  0.00003
860.1  0.00003
860.2  0.00003
860.3  0.00003
860.4  0.00003
860.5  0.00003
860.6  0.00003
860.7  0.00003
860.8  0.00003
860.9  0.00003
861.0  0.00003
861.1  0.00003
861.2  0.00003
861.3  0.00003
861.4  0.00003
861.5  0.00003
861.6  0.00003
861.7  0.00003
861.8  0.00003
861.9  0.00003
862.0  0.00003
862.1  0.00003
862.2  0.00003
862.3  0.00003
862.4  0.00003
862.5  0.00003
862.6  0.00003
862.7  0.00003
862.8  0.00003
862.9  0.00003
863.0  0.00003
863.1  0.00003
863.2  0.00003
863.3  0.00003
863.4  0.00003
863.5  0.00003
863.6  0.00003
863.7  0.00003
863.8  0.00003
863.9  0.00003
864.0  0.00003
864.1  0.00003
864.2  0.00003
864.3  0.00003
864.4  0.00003
864.5  0.00003
864.6  0.00003
864.7  0.00003
864.8  0.00003
864.9  0.00003
865.0  0.00003
865.1  0.00003
865.2  0.00003
865.3  0.00003
865.4  0.00003
865.5  0.00003
865.6  0.00003
865.7  0.00003
865.8  0.00002
865.9  0.00002
866.0  0.00002
866.1  0.00002
866.2  0.00002
866.3  0.00002
866.4  0.00002
866.5  0.00002
866.6  0.00002
866.7  0.00002
866.8  0.00002
866.9  0.00002
867.0  0.00002
867.1  0.00002
867.2  0.00002
867.3  0.00002
867.4  0.00002
867.5  0.00002
867.6  0.00002
867.7  0.00002
867.8  0.00002
867.9  0.00002
868.0  0.00002
868.1  0.00002
868.2  0.00002
868.3  0.00002
868.4  0.00002
868.5  0.00002
868.6  0.00002
868.7  0.00002
868.8  0.00002
868.9  0.00002
869.0  0.00002
869.1  0.00002
869.2  0.00002
869.3  0.00002
869.4  0.00002
869.5  0.00002
869.6  0.00002
869.7  0.00002
869.8  0.00002
869.9  0.00002
870.0  0.00002
870.1  0.00002
870.2  0.00002
870.3  0.00002
870.4  0.00002
870.5  0.00002
870.6  0.00002
870.7  0.00002
870.8  0.00002
870.9  0.00002
871.0  0.00002
871.1  0.00002
871.2  0.00002
871.3  0.00002
871.4  0.00002
871.5  0.00002
871.6  0.00002
871.7  0.00002
871.8  0.00002
871.9  0.00002
872.0  0.00002
872.1  0.00002
872.2  0.00002
872.3  0.00002
872.4  0.00002
872.5  0.00002
872.6  0.00002
872.7  0.00002
872.8  0.00002
872.9  0.00002
873.0  0.00002
873.1  0.00002
873.2  0.00002
873.3  0.00002
873.4  0.00002
873.5  0.00002
873.6  0.00002
873.7  0.00002
873.8  0.00002
873.9  0.00002
874.0  0.00002
874.1  0.00002
874.2  0.00002
874.3  0.00002
874.4  0.00002
874.5  0.00002
874.6  0.00002
874.7  0.00002
874.8  0.00002
874.9  0.00002
875.0  0.00002
875.1  0.00002
875.2  0.00002
875.3  0.00002
875.4  0.00002
875.5  0.00002
875.6  0.00002
875.7  0.00002
875.8  0.00002
875.9  0.00002
876.0  0.00002
876.1  0.00002
876.2  0.00002
876.3  0.00002
876.4  0.00002
876.5  0.00002
876.6  0.00002
876.7  0.00002
876.8  0.00002
876.9  0.00002
877.0  0.00002
877.1  0.00002
877.2  0.00002
877.3  0.00002
877.4  0.00002
877.5  0.00002
877.6  0.00002
877.7  0.00002
877.8  0.00002
877.9  0.00002
878.0  0.00002
878.1  0.00002
878.2  0.00002
878.3  0.00002
878.4  0.00002
878.5  0.00002
878.6  0.00002
878.7  0.00002
878.8  0.00002
878.9  0.00002
879.0  0.00002
879.1  0.00002
879.2  0.00002
879.3  0.00002
879.4  0.00002
879.5  0.00002
879.6  0.00002
879.7  0.00002
879.8  0.00002
879.9  0.00002
880.0  0.00002
880.1  0.00002
880.2  0.00002
880.3  0.00002
880.4  0.00002
880.5  0.00002
880.6  0.00002
880.7  0.00002
880.8  0.00002
880.9  0.00002
881.0  0.00002
881.1  0.00002
881.2  0.00002
881.3  0.00002
881.4  0.00002
881.5  0.00002
881.6  0.00002
881.7  0.00002
881.8  0.00002
881.9  0.00002
882.0  0.00002
882.1  0.00002
882.2  0.00002
882.3  0.00002
882.4  0.00002
882.5  0.00002
882.6  0.00002
882.7  0.00002
882.8  0.00002
882.9  0.00002
883.0  0.00002
883.1  0.00002
883.2  0.00003
883.3  0.00003
883.4  0.00003
883.5  0.00003
883.6  0.00003
883.7  0.00003
883.8  0.00003
883.9  0.00003
884.0  0.00003
884.1  0.00003
884.2  0.00003
884.3  0.00003
884.4  0.00003
884.5  0.00003
884.6  0.00003
884.7  0.00003
884.8  0.00003
884.9  0.00003
885.0  0.00003
885.1  0.00003
885.2  0.00003
885.3  0.00003
885.4  0.00003
885.5  0.00003
885.6  0.00003
885.7  0.00003
885.8  0.00003
885.9  0.00003
886.0  0.00003
886.1  0.00003
886.2  0.00003
886.3  0.00003
886.4  0.00003
886.5  0.00003
886.6  0.00003
886.7  0.00003
886.8  0.00003
886.9  0.00003
887.0  0.00003
887.1  0.00003
887.2  0.00003
887.3  0.00003
887.4  0.00003
887.5  0.00003
887.6  0.00003
887.7  0.00003
887.8  0.00003
887.9  0.00003
888.0  0.00003
888.1  0.00003
888.2  0.00003
888.3  0.00004
888.4  0.00004
888.5  0.00004
888.6  0.00004
888.7  0.00004
888.8  0.00004
888.9  0.00004
889.0  0.00004
889.1  0.00004
889.2  0.00004
889.3  0.00004
889.4  0.00004
889.5  0.00004
889.6  0.00004
889.7  0.00004
889.8  0.00004
889.9  0.00004
890.0  0.00004
890.1  0.00004
890.2  0.00004
890.3  0.00004
890.4  0.00004
890.5  0.00004
890.6  0.00004
890.7  0.00004
890.8  0.00004
890.9  0.00004
891.0  0.00004
891.1  0.00004
891.2  0.00004
891.3  0.00004
891.4  0.00004
891.5  0.00004
891.6  0.00005
891.7  0.00005
891.8  0.00005
891.9  0.00005
892.0  0.00005
892.1  0.00005
892.2  0.00005
892.3  0.00005
892.4  0.00005
892.5  0.00005
892.6  0.00005
892.7  0.00005
892.8  0.00005
892.9  0.00005
893.0  0.00005
893.1  0.00005
893.2  0.00005
893.3  0.00005
893.4  0.00005
893.5  0.00005
893.6  0.00005
893.7  0.00005
893.8  0.00005
893.9  0.00005
894.0  0.00005
894.1  0.00005
894.2  0.00005
894.3  0.00006
894.4  0.00006
894.5  0.00006
894.6  0.00006
894.7  0.00006
894.8  0.00006
894.9  0.00006
895.0  0.00006
895.1  0.00006
895.2  0.00006
895.3  0.00006
895.4  0.00006
895.5  0.00006
895.6  0.00006
895.7  0.00006
895.8  0.00006
895.9  0.00006
896.0  0.00006
896.1  0.00006
896.2  0.00006
896.3  0.00006
896.4  0.00006
896.5  0.00006
896.6  0.00006
896.7  0.00006
896.8  0.00006
896.9  0.00007
897.0  0.00007
897.1  0.00007
897.2  0.00007
897.3  0.00007
897.4  0.00007
897.5  0.00007
897.6  0.00007
897.7  0.00007
897.8  0.00007
897.9  0.00007
898.0  0.00007
898.1  0.00007
898.2  0.00007
898.3  0.00007
898.4  0.00007
898.5  0.00007
898.6  0.00007
898.7  0.00007
898.8  0.00007
898.9  0.00007
899.0  0.00007
899.1  0.00007
899.2  0.00007
899.3  0.00007
899.4  0.00007
899.5  0.00007
899.6  0.00008
899.7  0.00008
899.8  0.00008
899.9  0.00008
900.0  0.00008
900.1  0.00008
900.2  0.00008
900.3  0.00008
900.4  0.00008
900.5  0.00008
900.6  0.00008
900.7  0.00008
900.8  0.00008
900.9  0.00008
901.0  0.00008
901.1  0.00008
901.2  0.00008
901.3  0.00008
901.4  0.00008
901.5  0.00008
901.6  0.00008
901.7  0.00008
901.8  0.00008
901.9  0.00008
902.0  0.00008
902.1  0.00008
902.2  0.00008
902.3  0.00008
902.4  0.00008
902.5  0.00008
902.6  0.00008
902.7  0.00008
902.8  0.00009
902.9  0.00009
903.0  0.00009
903.1  0.00009
903.2  0.00009
903.3  0.00009
903.4  0.00009
903.5  0.00009
903.6  0.00009
903.7  0.00009
903.8  0.00009
903.9  0.00009
904.0  0.00009
904.1  0.00009
904.2  0.00009
904.3  0.00009
904.4  0.00009
904.5  0.00009
904.6  0.00009
904.7  0.00009
904.8  0.00009
904.9  0.00009
905.0  0.00009
905.1  0.00009
905.2  0.00009
905.3  0.00009
905.4  0.00009
905.5  0.00009
905.6  0.00009
905.7  0.00009
905.8  0.00009
905.9  0.00009
906.0  0.00009
906.1  0.00009
906.2  0.00009
906.3  0.00010
906.4  0.00010
906.5  0.00010
906.6  0.00010
906.7  0.00010
906.8  0.00010
906.9  0.00010
907.0  0.00010
907.1  0.00010
907.2  0.00010
907.3  0.00010
907.4  0.00010
907.5  0.00010
907.6  0.00010
907.7  0.00010
907.8  0.00010
907.9  0.00010
908.0  0.00010
908.1  0.00010
908.2  0.00010
908.3  0.00010
908.4  0.00010
908.5  0.00010
908.6  0.00010
908.7  0.00010
908.8  0.00010
908.9  0.00010
909.0  0.00010
909.1  0.00011
909.2  0.00011
909.3  0.00011
909.4  0.00011
909.5  0.00011
909.6  0.00011
909.7  0.00011
909.8  0.00011
909.9  0.00011
910.0  0.00011
910.1  0.00011
910.2  0.00011
910.3  0.00011
910.4  0.00011
910.5  0.00011
910.6  0.00011
910.7  0.00011
910.8  0.00011
910.9  0.00011
911.0  0.00011
911.1  0.00011
911.2  0.00011
911.3  0.00012
911.4  0.00012
911.5  0.00012
911.6  0.00012
911.7  0.00012
911.8  0.00012
911.9  0.00012
912.0  0.00012
912.1  0.00012
912.2  0.00012
912.3  0.00012
912.4  0.00012
912.5  0.00012
912.6  0.00012
912.7  0.00012
912.8  0.00012
912.9  0.00013
913.0  0.00013
913.1  0.00013
913.2  0.00013
913.3  0.00013
913.4  0.00013
913.5  0.00013
913.6  0.00013
913.7  0.00013
913.8  0.00013
913.9  0.00013
914.0  0.00013
914.1  0.00013
914.2  0.00013
914.3  0.00014
914.4  0.00014
914.5  0.00014
914.6  0.00014
914.7  0.00014
914.8  0.00014
914.9  0.00014
915.0  0.00014
915.1  0.00014
915.2  0.00014
915.3  0.00014
915.4  0.00015
915.5  0.00015
915.6  0.00015
915.7  0.00015
915.8  0.00015
915.9  0.00015
916.0  0.00015
916.1  0.00015
916.2  0.00015
916.3  0.00015
916.4  0.00016
916.5  0.00016
916.6  0.00016
916.7  0.00016
916.8  0.00016
916.9  0.00016
917.0  0.00016
917.1  0.00016
917.2  0.00017
917.3  0.00017
917.4  0.00017
917.5  0.00017
917.6  0.00017
917.7  0.00017
917.8  0.00017
917.9  0.00017
918.0  0.00018
918.1  0.00018
918.2  0.00018
918.3  0.00018
918.4  0.00018
918.5  0.00018
918.6  0.00018
918.7  0.00019
918.8  0.00019
918.9  0.00019
919.0  0.00019
919.1  0.00019
919.2  0.00019
919.3  0.00020
919.4  0.00020
919.5  0.00020
919.6  0.00020
919.7  0.00020
919.8  0.00020
919.9  0.00021
920.0  0.00021
920.1  0.00021
920.2  0.00021
920.3  0.00021
920.4  0.00022
920.5  0.00022
920.6  0.00022
920.7  0.00022
920.8  0.00022
920.9  0.00023
921.0  0.00023
921.1  0.00023
921.2  0.00023
921.3  0.00023
921.4  0.00024
921.5  0.00024
921.6  0.00024
921.7  0.00024
921.8  0.00025
921.9  0.00025
922.0  0.00025
922.1  0.00025
922.2  0.00025
922.3  0.00026
922.4  0.00026
922.5  0.00026
922.6  0.00026
922.7  0.00027
922.8  0.00027
922.9  0.00027
923.0  0.00028
923.1  0.00028
923.2  0.00028
923.3  0.00028
923.4  0.00029
923.5  0.00029
923.6  0.00029
923.7  0.00029
923.8  0.00030
923.9  0.00030
924.0  0.00030
924.1  0.00031
924.2  0.00031
924.3  0.00031
924.4  0.00032
924.5  0.00032
924.6  0.00032
924.7  0.00033
924.8  0.00033
924.9  0.00033
925.0  0.00034
925.1  0.00034
925.2  0.00034
925.3  0.00035
925.4  0.00035
925.5  0.00035
925.6  0.00036
925.7  0.00036
925.8  0.00036
925.9  0.00037
926.0  0.00037
926.1  0.00037
926.2  0.00038
926.3  0.00038
926.4  0.00039
926.5  0.00039
926.6  0.00039
926.7  0.00040
926.8  0.00040
926.9  0.00040
927.0  0.00041
927.1  0.00041
927.2  0.00042
927.3  0.00042
927.4  0.00043
927.5  0.00043
927.6  0.00043
927.7  0.00044
927.8  0.00044
927.9  0.00045
928.0  0.00045
928.1  0.00045
928.2  0.00046
928.3  0.00046
928.4  0.00047
928.5  0.00047
928.6  0.00048
928.7  0.00048
928.8  0.00049
928.9  0.00049
929.0  0.00049
929.1  0.00050
929.2  0.00050
929.3  0.00051
929.4  0.00051
929.5  0.00052
929.6  0.00052
929.7  0.00053
929.8  0.00053
929.9  0.00054
930.0  0.00054
930.1  0.00055
930.2  0.00055
930.3  0.00055
930.4  0.00056
930.5  0.00056
930.6  0.00057
930.7  0.00057
930.8  0.00058
930.9  0.00058
931.0  0.00059
931.1  0.00059
931.2  0.00060
931.3  0.00060
931.4  0.00061
931.5  0.00061
931.6  0.00062
931.7  0.00062
931.8  0.00063
931.9  0.00063
932.0  0.00064
932.1  0.00064
932.2  0.00065
932.3  0.00065
932.4  0.00065
932.5  0.00066
932.6  0.00066
932.7  0.00067
932.8  0.00067
932.9  0.00068
933.0  0.00068
933.1  0.00069
933.2  0.00069
933.3  0.00070
933.4  0.00070
933.5  0.00071
933.6  0.00071
933.7  0.00071
933.8  0.00072
933.9  0.00072
934.0  0.00073
934.1  0.00073
934.2  0.00074
934.3  0.00074
934.4  0.00075
934.5  0.00075
934.6  0.00075
934.7  0.00076
934.8  0.00076
934.9  0.00077
935.0  0.00077
935.1  0.00078
935.2  0.00078
935.3  0.00078
935.4  0.00079
935.5  0.00079
935.6  0.00080
935.7  0.00080
935.8  0.00081
935.9  0.00081
936.0  0.00081
936.1  0.00082
936.2  0.00082
936.3  0.00083
936.4  0.00083
936.5  0.00083
936.6  0.00084
936.7  0.00084
936.8  0.00084
936.9  0.00085
937.0  0.00085
937.1  0.00086
937.2  0.00086
937.3  0.00086
937.4  0.00087
937.5  0.00087
937.6  0.00087
937.7  0.00088
937.8  0.00088
937.9  0.00088
938.0  0.00089
938.1  0.00089
938.2  0.00089
938.3  0.00090
938.4  0.00090
938.5  0.00090
938.6  0.00091
938.7  0.00091
938.8  0.00091
938.9  0.00092
939.0  0.00092
939.1  0.00092
939.2  0.00093
939.3  0.00093
939.4  0.00093
939.5  0.00093
939.6  0.00094
939.7  0.00094
939.8  0.00094
939.9  0.00095
940.0  0.00095
940.1  0.00095
940.2  0.00095
940.3  0.00096
940.4  0.00096
940.5  0.00096
940.6  0.00096
940.7  0.00097
940.8  0.00097
940.9  0.00097
941.0  0.00097
941.1  0.00098
941.2  0.00098
941.3  0.00098
941.4  0.00098
941.5  0.00098
941.6  0.00099
941.7  0.00099
941.8  0.00099
941.9  0.00099
942.0  0.00099
942.1  0.00100
942.2  0.00100
942.3  0.00100
942.4  0.00100
942.5  0.00100
942.6  0.00100
942.7  0.00101
942.8  0.00101
942.9  0.00101
943.0  0.00101
943.1  0.00101
943.2  0.00101
943.3  0.00102
943.4  0.00102
943.5  0.00102
943.6  0.00102
943.7  0.00102
943.8  0.00102
943.9  0.00102
944.0  0.00102
944.1  0.00102
944.2  0.00102
944.3  0.00103
944.4  0.00103
944.5  0.00103
944.6  0.00103
944.7  0.00103
944.8  0.00103
944.9  0.00103
945.0  0.00103
945.1  0.00103
945.2  0.00103
945.3  0.00103
945.4  0.00103
945.5  0.00103
945.6  0.00103
945.7  0.00103
945.8  0.00103
945.9  0.00103
946.0  0.00103
946.1  0.00103
946.2  0.00103
946.3  0.00103
946.4  0.00103
946.5  0.00103
946.6  0.00103
946.7  0.00103
946.8  0.00103
946.9  0.00103
947.0  0.00102
947.1  0.00102
947.2  0.00102
947.3  0.00102
947.4  0.00102
947.5  0.00102
947.6  0.00102
947.7  0.00102
947.8  0.00102
947.9  0.00101
948.0  0.00101
948.1  0.00101
948.2  0.00101
948.3  0.00101
948.4  0.00101
948.5  0.00101
948.6  0.00100
948.7  0.00100
948.8  0.00100
948.9  0.00100
949.0  0.00100
949.1  0.00099
949.2  0.00099
949.3  0.00099
949.4  0.00099
949.5  0.00099
949.6  0.00098
949.7  0.00098
949.8  0.00098
949.9  0.00098
950.0  0.00097
950.1  0.00097
950.2  0.00097
950.3  0.00097
950.4  0.00096
950.5  0.00096
950.6  0.00096
950.7  0.00096
950.8  0.00095
950.9  0.00095
951.0  0.00095
951.1  0.00095
951.2  0.00094
951.3  0.00094
951.4  0.00094
951.5  0.00093
951.6  0.00093
951.7  0.00093
951.8  0.00093
951.9  0.00092
952.0  0.00092
952.1  0.00092
952.2  0.00091
952.3  0.00091
952.4  0.00091
952.5  0.00091
952.6  0.00090
952.7  0.00090
952.8  0.00090
952.9  0.00089
953.0  0.00089
953.1  0.00089
953.2  0.00088
953.3  0.00088
953.4  0.00088
953.5  0.00088
953.6  0.00087
953.7  0.00087
953.8  0.00087
953.9  0.00086
954.0  0.00086
954.1  0.00086
954.2  0.00085
954.3  0.00085
954.4  0.00085
954.5  0.00085
954.6  0.00084
954.7  0.00084
954.8  0.00084
954.9  0.00083
955.0  0.00083
955.1  0.00083
955.2  0.00083
955.3  0.00082
955.4  0.00082
955.5  0.00082
955.6  0.00081
955.7  0.00081
955.8  0.00081
955.9  0.00081
956.0  0.00080
956.1  0.00080
956.2  0.00080
956.3  0.00080
956.4  0.00079
956.5  0.00079
956.6  0.00079
956.7  0.00079
956.8  0.00078
956.9  0.00078
957.0  0.00078
957.1  0.00078
957.2  0.00077
957.3  0.00077
957.4  0.00077
957.5  0.00077
957.6  0.00076
957.7  0.00076
957.8  0.00076
957.9  0.00076
958.0  0.00075
958.1  0.00075
958.2  0.00075
958.3  0.00075
958.4  0.00074
958.5  0.00074
958.6  0.00074
958.7  0.00074
958.8  0.00073
958.9  0.00073
959.0  0.00073
959.1  0.00073
959.2  0.00073
959.3  0.00072
959.4  0.00072
959.5  0.00072
959.6  0.00072
959.7  0.00071
959.8  0.00071
959.9  0.00071
960.0  0.00071
960.1  0.00071
960.2  0.00070
960.3  0.00070
960.4  0.00070
960.5  0.00070
960.6  0.00070
960.7  0.00069
960.8  0.00069
960.9  0.00069
961.0  0.00069
961.1  0.00068
961.2  0.00068
961.3  0.00068
961.4  0.00068
961.5  0.00068
961.6  0.00067
961.7  0.00067
961.8  0.00067
961.9  0.00067
962.0  0.00066
962.1  0.00066
962.2  0.00066
962.3  0.00066
962.4  0.00065
962.5  0.00065
962.6  0.00065
962.7  0.00065
962.8  0.00064
962.9  0.00064
963.0  0.00064
963.1  0.00064
963.2  0.00063
963.3  0.00063
963.4  0.00063
963.5  0.00062
963.6  0.00062
963.7  0.00062
963.8  0.00062
963.9  0.00061
964.0  0.00061
964.1  0.00061
964.2  0.00060
964.3  0.00060
964.4  0.00060
964.5  0.00059
964.6  0.00059
964.7  0.00059
964.8  0.00058
964.9  0.00058
965.0  0.00058
965.1  0.00057
965.2  0.00057
965.3  0.00057
965.4  0.00056
965.5  0.00056
965.6  0.00055
965.7  0.00055
965.8  0.00055
965.9  0.00054
966.0  0.00054
966.1  0.00053
966.2  0.00053
966.3  0.00053
966.4  0.00052
966.5  0.00052
966.6  0.00051
966.7  0.00051
966.8  0.00051
966.9  0.00050
967.0  0.00050
967.1  0.00049
967.2  0.00049
967.3  0.00048
967.4  0.00048
967.5  0.00047
967.6  0.00047
967.7  0.00046
967.8  0.00046
967.9  0.00046
968.0  0.00045
968.1  0.00045
968.2  0.00044
968.3  0.00044
968.4  0.00043
968.5  0.00043
968.6  0.00042
968.7  0.00042
968.8  0.00041
968.9  0.00041
969.0  0.00040
969.1  0.00040
969.2  0.00039
969.3  0.00039
969.4  0.00038
969.5  0.00038
969.6  0.00037
969.7  0.00037
969.8  0.00036
969.9  0.00036
970.0  0.00036
970.1  0.00035
970.2  0.00035
970.3  0.00034
970.4  0.00034
970.5  0.00033
970.6  0.00033
970.7  0.00032
970.8  0.00032
970.9  0.00031
971.0  0.00031
971.1  0.00031
971.2  0.00030
971.3  0.00030
971.4  0.00029
971.5  0.00029
971.6  0.00028
971.7  0.00028
971.8  0.00028
971.9  0.00027
972.0  0.00027
972.1  0.00026
972.2  0.00026
972.3  0.00026
972.4  0.00025
972.5  0.00025
972.6  0.00024
972.7  0.00024
972.8  0.00024
972.9  0.00023
973.0  0.00023
973.1  0.00023
973.2  0.00022
973.3  0.00022
973.4  0.00022
973.5  0.00021
973.6  0.00021
973.7  0.00021
973.8  0.00020
973.9  0.00020
974.0  0.00020
974.1  0.00019
974.2  0.00019
974.3  0.00019
974.4  0.00019
974.5  0.00018
974.6  0.00018
974.7  0.00018
974.8  0.00017
974.9  0.00017
975.0  0.00017
975.1  0.00017
975.2  0.00016
975.3  0.00016
975.4  0.00016
975.5  0.00016
975.6  0.00015
975.7  0.00015
975.8  0.00015
975.9  0.00015
976.0  0.00014
976.1  0.00014
976.2  0.00014
976.3  0.00014
976.4  0.00014
976.5  0.00013
976.6  0.00013
976.7  0.00013
976.8  0.00013
976.9  0.00013
977.0  0.00012
977.1  0.00012
977.2  0.00012
977.3  0.00012
977.4  0.00012
977.5  0.00012
977.6  0.00011
977.7  0.00011
977.8  0.00011
977.9  0.00011
978.0  0.00011
978.1  0.00011
978.2  0.00010
978.3  0.00010
978.4  0.00010
978.5  0.00010
978.6  0.00010
978.7  0.00010
978.8  0.00010
978.9  0.00009
979.0  0.00009
979.1  0.00009
979.2  0.00009
979.3  0.00009
979.4  0.00009
979.5  0.00009
979.6  0.00009
979.7  0.00008
979.8  0.00008
979.9  0.00008
980.0  0.00008
980.1  0.00008
980.2  0.00008
980.3  0.00008
980.4  0.00008
980.5  0.00008
980.6  0.00008
980.7  0.00007
980.8  0.00007
980.9  0.00007
981.0  0.00007
981.1  0.00007
981.2  0.00007
981.3  0.00007
981.4  0.00007
981.5  0.00007
981.6  0.00007
981.7  0.00007
981.8  0.00006
981.9  0.00006
982.0  0.00006
982.1  0.00006
982.2  0.00006
982.3  0.00006
982.4  0.00006
982.5  0.00006
982.6  0.00006
982.7  0.00006
982.8  0.00006
982.9  0.00006
983.0  0.00006
983.1  0.00006
983.2  0.00005
983.3  0.00005
983.4  0.00005
983.5  0.00005
983.6  0.00005
983.7  0.00005
983.8  0.00005
983.9  0.00005
984.0  0.00005
984.1  0.00005
984.2  0.00005
984.3  0.00005
984.4  0.00005
984.5  0.00005
984.6  0.00005
984.7  0.00005
984.8  0.00005
984.9  0.00005
985.0  0.00005
985.1  0.00004
985.2  0.00004
985.3  0.00004
985.4  0.00004
985.5  0.00004
985.6  0.00004
985.7  0.00004
985.8  0.00004
985.9  0.00004
986.0  0.00004
986.1  0.00004
986.2  0.00004
986.3  0.00004
986.4  0.00004
986.5  0.00004
986.6  0.00004
986.7  0.00004
986.8  0.00004
986.9  0.00004
987.0  0.00004
987.1  0.00004
987.2  0.00004
987.3  0.00004
987.4  0.00004
987.5  0.00004
987.6  0.00004
987.7  0.00004
987.8  0.00004
987.9  0.00003
988.0  0.00003
988.1  0.00003
988.2  0.00003
988.3  0.00003
988.4  0.00003
988.5  0.00003
988.6  0.00003
988.7  0.00003
988.8  0.00003
988.9  0.00003
989.0  0.00003
989.1  0.00003
989.2  0.00003
989.3  0.00003
989.4  0.00003
989.5  0.00003
989.6  0.00003
989.7  0.00003
989.8  0.00003
989.9  0.00003
990.0  0.00003
990.1  0.00003
990.2  0.00003
990.3  0.00003
990.4  0.00003
990.5  0.00003
990.6  0.00003
990.7  0.00003
990.8  0.00003
990.9  0.00003
991.0  0.00003
991.1  0.00003
991.2  0.00003
991.3  0.00003
991.4  0.00003
991.5  0.00003
991.6  0.00003
991.7  0.00003
991.8  0.00003
991.9  0.00003
992.0  0.00003
992.1  0.00003
992.2  0.00003
992.3  0.00003
992.4  0.00003
992.5  0.00003
992.6  0.00003
992.7  0.00003
992.8  0.00003
992.9  0.00003
993.0  0.00003
993.1  0.00002
993.2  0.00002
993.3  0.00002
993.4  0.00002
993.5  0.00002
993.6  0.00002
993.7  0.00002
993.8  0.00002
993.9  0.00002
994.0  0.00002
994.1  0.00002
994.2  0.00002
994.3  0.00002
994.4  0.00002
994.5  0.00002
994.6  0.00002
994.7  0.00002
994.8  0.00002
994.9  0.00002
995.0  0.00002
995.1  0.00002
995.2  0.00002
995.3  0.00002
995.4  0.00002
995.5  0.00002
995.6  0.00002
995.7  0.00002
995.8  0.00002
995.9  0.00002
996.0  0.00002
996.1  0.00002
996.2  0.00002
996.3  0.00002
996.4  0.00002
996.5  0.00002
996.6  0.00002
996.7  0.00002
996.8  0.00002
996.9  0.00002
997.0  0.00002
997.1  0.00002
997.2  0.00002
997.3  0.00002
997.4  0.00002
997.5  0.00002
997.6  0.00002
997.7  0.00002
997.8  0.00002
997.9  0.00002
998.0  0.00002
998.1  0.00002
998.2  0.00002
998.3  0.00002
998.4  0.00002
998.5  0.00002
998.6  0.00002
998.7  0.00002
998.8  0.00002
998.9  0.00002
999.0  0.00002
999.1  0.00002
999.2  0.00002
999.3  0.00002
999.4  0.00002
999.5  0.00002
999.6  0.00002
999.7  0.00002
999.8  0.00002
999.9  0.00002
1000.0  0.00002
1000.1  0.00002
1000.2  0.00002
1000.3  0.00002
1000.4  0.00002
1000.5  0.00002
1000.6  0.00002
1000.7  0.00002
1000.8  0.00002
1000.9  0.00002
1001.0  0.00002
1001.1  0.00002
1001.2  0.00002
1001.3  0.00002
1001.4  0.00002
1001.5  0.00002
1001.6  0.00002
1001.7  0.00002
1001.8  0.00002
1001.9  0.00002
1002.0  0.00002
1002.1  0.00002
1002.2  0.00002
1002.3  0.00002
1002.4  0.00002
1002.5  0.00002
1002.6  0.00002
1002.7  0.00002
1002.8  0.00002
1002.9  0.00002
1003.0  0.00002
1003.1  0.00002
1003.2  0.00002
1003.3  0.00002
1003.4  0.00002
1003.5  0.00002
1003.6  0.00002
1003.7  0.00002
1003.8  0.00002
1003.9  0.00002
1004.0  0.00002
1004.1  0.00002
1004.2  0.00002
1004.3  0.00002
1004.4  0.00002
1004.5  0.00002
1004.6  0.00002
1004.7  0.00002
1004.8  0.00002
1004.9  0.00002
1005.0  0.00002
1005.1  0.00002
1005.2  0.00002
1005.3  0.00002
1005.4  0.00002
1005.5  0.00002
1005.6  0.00002
1005.7  0.00002
1005.8  0.00002
1005.9  0.00002
1006.0  0.00002
1006.1  0.00002
1006.2  0.00002
1006.3  0.00002
1006.4  0.00002
1006.5  0.00002
1006.6  0.00002
1006.7  0.00002
1006.8  0.00002
1006.9  0.00002
1007.0  0.00002
1007.1  0.00002
1007.2  0.00002
1007.3  0.00002
1007.4  0.00002
1007.5  0.00002
1007.6  0.00002
1007.7  0.00002
1007.8  0.00002
1007.9  0.00002
1008.0  0.00002
1008.1  0.00002
1008.2  0.00002
1008.3  0.00002
1008.4  0.00002
1008.5  0.00002
1008.6  0.00002
1008.7  0.00002
1008.8  0.00002
1008.9  0.00002
1009.0  0.00002
1009.1  0.00002
1009.2  0.00002
1009.3  0.00002
1009.4  0.00002
1009.5  0.00002
1009.6  0.00002
1009.7  0.00002
1009.8  0.00002
1009.9  0.00002
1010.0  0.00002
1010.1  0.00002
1010.2  0.00002
1010.3  0.00002
1010.4  0.00002
1010.5  0.00002
1010.6  0.00002
1010.7  0.00002
1010.8  0.00002
1010.9  0.00002
1011.0  0.00002
1011.1  0.00002
1011.2  0.00003
1011.3  0.00003
1011.4  0.00003
1011.5  0.00003
1011.6  0.00003
1011.7  0.00003
1011.8  0.00003
1011.9  0.00003
1012.0  0.00003
1012.1  0.00003
1012.2  0.00003
1012.3  0.00003
1012.4  0.00003
1012.5  0.00003
1012.6  0.00003
1012.7  0.00003
1012.8  0.00003
1012.9  0.00003
1013.0  0.00003
1013.1  0.00003
1013.2  0.00003
1013.3  0.00003
1013.4  0.00003
1013.5  0.00003
1013.6  0.00003
1013.7  0.00003
1013.8  0.00003
1013.9  0.00003
1014.0  0.00003
1014.1  0.00003
1014.2  0.00003
1014.3  0.00003
1014.4  0.00003
1014.5  0.00003
1014.6  0.00003
1014.7  0.00003
1014.8  0.00003
1014.9  0.00003
1015.0  0.00003
1015.1  0.00003
1015.2  0.00003
1015.3  0.00003
1015.4  0.00003
1015.5  0.00003
1015.6  0.00003
1015.7  0.00003
1015.8  0.00003
1015.9  0.00003
1016.0  0.00003
1016.1  0.00003
1016.2  0.00003
1016.3  0.00003
1016.4  0.00003
1016.5  0.00003
1016.6  0.00003
1016.7  0.00003
1016.8  0.00003
1016.9  0.00003
1017.0  0.00004
1017.1  0.00004
1017.2  0.00004
1017.3  0.00004
1017.4  0.00004
1017.5  0.00004
1017.6  0.00004
1017.7  0.00004
1017.8  0.00004
1017.9  0.00004
1018.0  0.00004
1018.1  0.00004
1018.2  0.00004
1018.3  0.00004
1018.4  0.00004
1018.5  0.00004
1018.6  0.00004
1018.7  0.00004
1018.8  0.00004
1018.9  0.00004
1019.0  0.00004
1019.1  0.00004
1019.2  0.00004
1019.3  0.00004
1019.4  0.00004
1019.5  0.00004
1019.6  0.00004
1019.7  0.00004
1019.8  0.00004
1019.9  0.00004
1020.0  0.00004
1020.1  0.00004
1020.2  0.00004
1020.3  0.00005
1020.4  0.00005
1020.5  0.00005
1020.6  0.00005
1020.7  0.00005
1020.8  0.00005
1020.9  0.00005
1021.0  0.00005
1021.1  0.00005
1021.2  0.00005
1021.3  0.00005
1021.4  0.00005
1021.5  0.00005
1021.6  0.00005
1021.7  0.00005
1021.8  0.00005
1021.9  0.00005
1022.0  0.00005
1022.1  0.00005
1022.2  0.00005
1022.3  0.00005
1022.4  0.00005
1022.5  0.00005
1022.6  0.00005
1022.7  0.00006
1022.8  0.00006
1022.9  0.00006
1023.0  0.00006
1023.1  0.00006
1023.2  0.00006
1023.3  0.00006
1023.4  0.00006
1023.5  0.00006
1023.6  0.00006
1023.7  0.00006
1023.8  0.00006
1023.9  0.00006
1024.0  0.00006
1024.1  0.00006
1024.2  0.00006
1024.3  0.00006
1024.4  0.00006
1024.5  0.00007
1024.6  0.00007
1024.7  0.00007
1024.8  0.00007
1024.9  0.00007
1025.0  0.00007
1025.1  0.00007
1025.2  0.00007
1025.3  0.00007
1025.4  0.00007
1025.5  0.00007
1025.6  0.00007
1025.7  0.00007
1025.8  0.00007
1025.9  0.00007
1026.0  0.00007
1026.1  0.00008
1026.2  0.00008
1026.3  0.00008
1026.4  0.00008
1026.5  0.00008
1026.6  0.00008
1026.7  0.00008
1026.8  0.00008
1026.9  0.00008
1027.0  0.00008
1027.1  0.00008
1027.2  0.00008
1027.3  0.00008
1027.4  0.00008
1027.5  0.00009
1027.6  0.00009
1027.7  0.00009
1027.8  0.00009
1027.9  0.00009
1028.0  0.00009
1028.1  0.00009
1028.2  0.00009
1028.3  0.00009
1028.4  0.00009
1028.5  0.00009
1028.6  0.00009
1028.7  0.00009
1028.8  0.00009
1028.9  0.00010
1029.0  0.00010
1029.1  0.00010
1029.2  0.00010
1029.3  0.00010
1029.4  0.00010
1029.5  0.00010
1029.6  0.00010
1029.7  0.00010
1029.8  0.00010
1029.9  0.00010
1030.0  0.00010
1030.1  0.00010
1030.2  0.00011
1030.3  0.00011
1030.4  0.00011
1030.5  0.00011
1030.6  0.00011
1030.7  0.00011
1030.8  0.00011
1030.9  0.00011
1031.0  0.00011
1031.1  0.00011
1031.2  0.00011
1031.3  0.00011
1031.4  0.00011
1031.5  0.00012
1031.6  0.00012
1031.7  0.00012
1031.8  0.00012
1031.9  0.00012
1032.0  0.00012
1032.1  0.00012
1032.2  0.00012
1032.3  0.00012
1032.4  0.00012
1032.5  0.00012
1032.6  0.00012
1032.7  0.00012
1032.8  0.00012
1032.9  0.00012
1033.0  0.00013
1033.1  0.00013
1033.2  0.00013
1033.3  0.00013
1033.4  0.00013
1033.5  0.00013
1033.6  0.00013
1033.7  0.00013
1033.8  0.00013
1033.9  0.00013
1034.0  0.00013
1034.1  0.00013
1034.2  0.00013
1034.3  0.00013
1034.4  0.00013
1034.5  0.00013
1034.6  0.00013
1034.7  0.00013
1034.8  0.00013
1034.9  0.00014
1035.0  0.00014
1035.1  0.00014
1035.2  0.00014
1035.3  0.00014
1035.4  0.00014
1035.5  0.00014
1035.6  0.00014
1035.7  0.00014
1035.8  0.00014
1035.9  0.00014
1036.0  0.00014
1036.1  0.00014
1036.2  0.00014
1036.3  0.00014
1036.4  0.00014
1036.5  0.00014
1036.6  0.00014
1036.7  0.00014
1036.8  0.00014
1036.9  0.00014
1037.0  0.00014
1037.1  0.00014
1037.2  0.00014
1037.3  0.00014
1037.4  0.00014
1037.5  0.00014
1037.6  0.00014
1037.7  0.00014
1037.8  0.00014
1037.9  0.00014
1038.0  0.00014
1038.1  0.00014
1038.2  0.00014
1038.3  0.00014
1038.4  0.00014
1038.5  0.00014
1038.6  0.00014
1038.7  0.00014
1038.8  0.00014
1038.9  0.00014
1039.0  0.00014
1039.1  0.00014
1039.2  0.00014
1039.3  0.00014
1039.4  0.00014
1039.5  0.00014
1039.6  0.00014
1039.7  0.00014
1039.8  0.00014
1039.9  0.00014
1040.0  0.00014
1040.1  0.00014
1040.2  0.00014
1040.3  0.00014
1040.4  0.00014
1040.5  0.00014
1040.6  0.00014
1040.7  0.00014
1040.8  0.00014
1040.9  0.00014
1041.0  0.00014
1041.1  0.00014
1041.2  0.00014
1041.3  0.00014
1041.4  0.00014
1041.5  0.00014
1041.6  0.00013
1041.7  0.00013
1041.8  0.00013
1041.9  0.00013
1042.0  0.00013
1042.1  0.00013
1042.2  0.00013
1042.3  0.00013
1042.4  0.00013
1042.5  0.00013
1042.6  0.00013
1042.7  0.00013
1042.8  0.00013
1042.9  0.00013
1043.0  0.00013
1043.1  0.00013
1043.2  0.00013
1043.3  0.00013
1043.4  0.00013
1043.5  0.00013
1043.6  0.00013
1043.7  0.00013
1043.8  0.00013
1043.9  0.00013
1044.0  0.00013
1044.1  0.00013
1044.2  0.00013
1044.3  0.00013
1044.4  0.00013
1044.5  0.00013
1044.6  0.00013
1044.7  0.00013
1044.8  0.00013
1044.9  0.00013
1045.0  0.00013
1045.1  0.00013
1045.2  0.00012
1045.3  0.00012
1045.4  0.00012
1045.5  0.00012
1045.6  0.00012
1045.7  0.00012
1045.8  0.00012
1045.9  0.00012
1046.0  0.00012
1046.1  0.00012
1046.2  0.00012
1046.3  0.00012
1046.4  0.00012
1046.5  0.00012
1046.6  0.00012
1046.7  0.00012
1046.8  0.00012
1046.9  0.00012
1047.0  0.00012
1047.1  0.00012
1047.2  0.00012
1047.3  0.00012
1047.4  0.00012
1047.5  0.00012
1047.6  0.00012
1047.7  0.00012
1047.8  0.00012
1047.9  0.00012
1048.0  0.00012
1048.1  0.00012
1048.2  0.00012
1048.3  0.00012
1048.4  0.00012
1048.5  0.00012
1048.6  0.00012
1048.7  0.00012
1048.8  0.00012
1048.9  0.00012
1049.0  0.00012
1049.1  0.00012
1049.2  0.00012
1049.3  0.00012
1049.4  0.00012
1049.5  0.00012
1049.6  0.00012
1049.7  0.00012
1049.8  0.00012
1049.9  0.00012
1050.0  0.00012
1050.1  0.00011
1050.2  0.00011
1050.3  0.00011
1050.4  0.00011
1050.5  0.00011
1050.6  0.00011
1050.7  0.00011
1050.8  0.00011
1050.9  0.00011
1051.0  0.00011
1051.1  0.00011
1051.2  0.00011
1051.3  0.00011
1051.4  0.00011
1051.5  0.00011
1051.6  0.00011
1051.7  0.00011
1051.8  0.00011
1051.9  0.00011
1052.0  0.00011
1052.1  0.00011
1052.2  0.00011
1052.3  0.00011
1052.4  0.00011
1052.5  0.00011
1052.6  0.00011
1052.7  0.00011
1052.8  0.00011
1052.9  0.00011
1053.0  0.00011
1053.1  0.00011
1053.2  0.00011
1053.3  0.00011
1053.4  0.00011
1053.5  0.00011
1053.6  0.00011
1053.7  0.00011
1053.8  0.00011
1053.9  0.00011
1054.0  0.00011
1054.1  0.00011
1054.2  0.00011
1054.3  0.00011
1054.4  0.00011
1054.5  0.00011
1054.6  0.00011
1054.7  0.00011
1054.8  0.00011
1054.9  0.00011
1055.0  0.00011
1055.1  0.00011
1055.2  0.00011
1055.3  0.00011
1055.4  0.00011
1055.5  0.00011
1055.6  0.00011
1055.7  0.00011
1055.8  0.00011
1055.9  0.00011
1056.0  0.00011
1056.1  0.00011
1056.2  0.00011
1056.3  0.00011
1056.4  0.00011
1056.5  0.00011
1056.6  0.00011
1056.7  0.00011
1056.8  0.00011
1056.9  0.00011
1057.0  0.00011
1057.1  0.00011
1057.2  0.00011
1057.3  0.00011
1057.4  0.00011
1057.5  0.00011
1057.6  0.00011
1057.7  0.00011
1057.8  0.00011
1057.9  0.00011
1058.0  0.00011
1058.1  0.00011
1058.2  0.00011
1058.3  0.00011
1058.4  0.00011
1058.5  0.00011
1058.6  0.00011
1058.7  0.00011
1058.8  0.00011
1058.9  0.00011
1059.0  0.00011
1059.1  0.00011
1059.2  0.00011
1059.3  0.00011
1059.4  0.00011
1059.5  0.00011
1059.6  0.00011
1059.7  0.00011
1059.8  0.00011
1059.9  0.00011
1060.0  0.00011
1060.1  0.00011
1060.2  0.00011
1060.3  0.00011
1060.4  0.00011
1060.5  0.00011
1060.6  0.00011
1060.7  0.00011
1060.8  0.00011
1060.9  0.00011
1061.0  0.00011
1061.1  0.00011
1061.2  0.00011
1061.3  0.00011
1061.4  0.00011
1061.5  0.00011
1061.6  0.00011
1061.7  0.00011
1061.8  0.00011
1061.9  0.00011
1062.0  0.00011
1062.1  0.00011
1062.2  0.00011
1062.3  0.00011
1062.4  0.00011
1062.5  0.00011
1062.6  0.00011
1062.7  0.00011
1062.8  0.00011
1062.9  0.00011
1063.0  0.00011
1063.1  0.00011
1063.2  0.00011
1063.3  0.00011
1063.4  0.00011
1063.5  0.00011
1063.6  0.00011
1063.7  0.00011
1063.8  0.00011
1063.9  0.00011
1064.0  0.00011
1064.1  0.00011
1064.2  0.00011
1064.3  0.00011
1064.4  0.00011
1064.5  0.00011
1064.6  0.00011
1064.7  0.00011
1064.8  0.00011
1064.9  0.00011
1065.0  0.00011
1065.1  0.00011
1065.2  0.00011
1065.3  0.00011
1065.4  0.00011
1065.5  0.00011
1065.6  0.00011
1065.7  0.00011
1065.8  0.00011
1065.9  0.00011
1066.0  0.00011
1066.1  0.00011
1066.2  0.00011
1066.3  0.00011
1066.4  0.00011
1066.5  0.00011
1066.6  0.00011
1066.7  0.00011
1066.8  0.00011
1066.9  0.00011
1067.0  0.00011
1067.1  0.00011
1067.2  0.00011
1067.3  0.00011
1067.4  0.00011
1067.5  0.00011
1067.6  0.00011
1067.7  0.00011
1067.8  0.00011
1067.9  0.00011
1068.0  0.00011
1068.1  0.00011
1068.2  0.00011
1068.3  0.00011
1068.4  0.00011
1068.5  0.00011
1068.6  0.00011
1068.7  0.00011
1068.8  0.00011
1068.9  0.00011
1069.0  0.00011
1069.1  0.00011
1069.2  0.00011
1069.3  0.00011
1069.4  0.00011
1069.5  0.00011
1069.6  0.00011
1069.7  0.00011
1069.8  0.00011
1069.9  0.00011
1070.0  0.00011
1070.1  0.00011
1070.2  0.00010
1070.3  0.00010
1070.4  0.00010
1070.5  0.00010
1070.6  0.00010
1070.7  0.00010
1070.8  0.00010
1070.9  0.00010
1071.0  0.00010
1071.1  0.00010
1071.2  0.00010
1071.3  0.00010
1071.4  0.00010
1071.5  0.00010
1071.6  0.00010
1071.7  0.00010
1071.8  0.00010
1071.9  0.00010
1072.0  0.00010
1072.1  0.00010
1072.2  0.00010
1072.3  0.00010
1072.4  0.00010
1072.5  0.00010
1072.6  0.00010
1072.7  0.00010
1072.8  0.00010
1072.9  0.00010
1073.0  0.00010
1073.1  0.00010
1073.2  0.00010
1073.3  0.00010
1073.4  0.00010
1073.5  0.00010
1073.6  0.00010
1073.7  0.00010
1073.8  0.00010
1073.9  0.00010
1074.0  0.00010
1074.1  0.00010
1074.2  0.00009
1074.3  0.00009
1074.4  0.00009
1074.5  0.00009
1074.6  0.00009
1074.7  0.00009
1074.8  0.00009
1074.9  0.00009
1075.0  0.00009
1075.1  0.00009
1075.2  0.00009
1075.3  0.00009
1075.4  0.00009
1075.5  0.00009
1075.6  0.00009
1075.7  0.00009
1075.8  0.00009
1075.9  0.00009
1076.0  0.00009
1076.1  0.00009
1076.2  0.00009
1076.3  0.00009
1076.4  0.00009
1076.5  0.00009
1076.6  0.00009
1076.7  0.00009
1076.8  0.00009
1076.9  0.00009
1077.0  0.00009
1077.1  0.00009
1077.2  0.00009
1077.3  0.00009
1077.4  0.00009
1077.5  0.00009
1077.6  0.00009
1077.7  0.00009
1077.8  0.00009
1077.9  0.00009
1078.0  0.00009
1078.1  0.00008
1078.2  0.00008
1078.3  0.00008
1078.4  0.00008
1078.5  0.00008
1078.6  0.00008
1078.7  0.00008
1078.8  0.00008
1078.9  0.00008
1079.0  0.00008
1079.1  0.00008
1079.2  0.00008
1079.3  0.00008
1079.4  0.00008
1079.5  0.00008
1079.6  0.00008
1079.7  0.00008
1079.8  0.00008
1079.9  0.00008
1080.0  0.00008
1080.1  0.00008
1080.2  0.00008
1080.3  0.00008
1080.4  0.00008
1080.5  0.00008
1080.6  0.00008
1080.7  0.00008
1080.8  0.00008
1080.9  0.00008
1081.0  0.00008
1081.1  0.00008
1081.2  0.00008
1081.3  0.00008
1081.4  0.00008
1081.5  0.00008
1081.6  0.00008
1081.7  0.00008
1081.8  0.00008
1081.9  0.00008
1082.0  0.00008
1082.1  0.00008
1082.2  0.00008
1082.3  0.00008
1082.4  0.00008
1082.5  0.00008
1082.6  0.00008
1082.7  0.00008
1082.8  0.00008
1082.9  0.00008
1083.0  0.00008
1083.1  0.00008
1083.2  0.00008
1083.3  0.00008
1083.4  0.00008
1083.5  0.00008
1083.6  0.00008
1083.7  0.00008
1083.8  0.00008
1083.9  0.00008
1084.0  0.00007
1084.1  0.00007
1084.2  0.00007
1084.3  0.00007
1084.4  0.00007
1084.5  0.00007
1084.6  0.00007
1084.7  0.00007
1084.8  0.00007
1084.9  0.00007
1085.0  0.00007
1085.1  0.00007
1085.2  0.00007
1085.3  0.00007
1085.4  0.00007
1085.5  0.00007
1085.6  0.00007
1085.7  0.00007
1085.8  0.00007
1085.9  0.00007
1086.0  0.00007
1086.1  0.00007
1086.2  0.00007
1086.3  0.00007
1086.4  0.00007
1086.5  0.00007
1086.6  0.00007
1086.7  0.00007
1086.8  0.00007
1086.9  0.00007
1087.0  0.00007
1087.1  0.00007
1087.2  0.00007
1087.3  0.00007
1087.4  0.00007
1087.5  0.00007
1087.6  0.00007
1087.7  0.00007
1087.8  0.00007
1087.9  0.00007
1088.0  0.00007
1088.1  0.00007
1088.2  0.00007
1088.3  0.00007
1088.4  0.00007
1088.5  0.00007
1088.6  0.00007
1088.7  0.00007
1088.8  0.00007
1088.9  0.00007
1089.0  0.00007
1089.1  0.00007
1089.2  0.00007
1089.3  0.00007
1089.4  0.00007
1089.5  0.00007
1089.6  0.00007
1089.7  0.00007
1089.8  0.00007
1089.9  0.00007
1090.0  0.00007
1090.1  0.00007
1090.2  0.00007
1090.3  0.00007
1090.4  0.00007
1090.5  0.00007
1090.6  0.00007
1090.7  0.00007
1090.8  0.00007
1090.9  0.00007
1091.0  0.00007
1091.1  0.00007
1091.2  0.00007
1091.3  0.00007
1091.4  0.00007
1091.5  0.00007
1091.6  0.00007
1091.7  0.00007
1091.8  0.00007
1091.9  0.00007
1092.0  0.00007
1092.1  0.00007
1092.2  0.00008
1092.3  0.00008
1092.4  0.00008
1092.5  0.00008
1092.6  0.00008
1092.7  0.00008
1092.8  0.00008
1092.9  0.00008
1093.0  0.00008
1093.1  0.00008
1093.2  0.00008
1093.3  0.00008
1093.4  0.00008
1093.5  0.00008
1093.6  0.00008
1093.7  0.00008
1093.8  0.00008
1093.9  0.00008
1094.0  0.00008
1094.1  0.00008
1094.2  0.00008
1094.3  0.00008
1094.4  0.00008
1094.5  0.00008
1094.6  0.00008
1094.7  0.00008
1094.8  0.00008
1094.9  0.00008
1095.0  0.00008
1095.1  0.00008
1095.2  0.00008
1095.3  0.00008
1095.4  0.00008
1095.5  0.00008
1095.6  0.00008
1095.7  0.00008
1095.8  0.00008
1095.9  0.00008
1096.0  0.00008
1096.1  0.00008
1096.2  0.00008
1096.3  0.00008
1096.4  0.00008
1096.5  0.00008
1096.6  0.00008
1096.7  0.00008
1096.8  0.00008
1096.9  0.00008
1097.0  0.00008
1097.1  0.00008
1097.2  0.00009
1097.3  0.00009
1097.4  0.00009
1097.5  0.00009
1097.6  0.00009
1097.7  0.00009
1097.8  0.00009
1097.9  0.00009
1098.0  0.00009
1098.1  0.00009
1098.2  0.00009
1098.3  0.00009
1098.4  0.00009
1098.5  0.00009
1098.6  0.00009
1098.7  0.00009
1098.8  0.00009
1098.9  0.00009
1099.0  0.00009
1099.1  0.00009
1099.2  0.00009
1099.3  0.00009
1099.4  0.00009
1099.5  0.00009
1099.6  0.00009
1099.7  0.00009
1099.8  0.00009
1099.9  0.00009
1100.0  0.00010
