#ED286-W  1%H short   1.5786-1.5945 um
#Cuton:  1575.22
#Cutoff: 1592.75
#
# Added 0.0 values at both ends for extrapolation. mdillman 2-18-09
#  wl     trans at 50K 
# (nm)         (%)     
#----------------------
1559.00   0.0
1560.00   0.091901317
1560.10   0.097528048
1560.20   0.100304470
1560.30   0.105480231
1560.40   0.105548158
1560.50   0.106006570
1560.60   0.110577256
1560.70   0.113445059
1560.80   0.118528590
1560.90   0.127191067
1561.00   0.133215934
1561.10   0.131130919
1561.20   0.130077362
1561.30   0.112793885
1561.40   0.148334876
1561.50   0.153342143
1561.60   0.140373334
1561.70   0.141386122
1561.80   0.135350883
1561.90   0.149784640
1562.00   0.162657872
1562.10   0.160974875
1562.20   0.169859812
1562.30   0.158044294
1562.40   0.177302048
1562.50   0.165293127
1562.60   0.194585025
1562.70   0.196721688
1562.80   0.211171642
1562.90   0.217105374
1563.00   0.215400383
1563.10   0.217813790
1563.20   0.223663569
1563.30   0.233494148
1563.40   0.251798600
1563.50   0.245918006
1563.60   0.255373180
1563.70   0.260529757
1563.80   0.294561625
1563.90   0.280682951
1564.00   0.293129832
1564.10   0.302308023
1564.20   0.318641484
1564.30   0.326433510
1564.40   0.326413482
1564.50   0.345414221
1564.60   0.378702998
1564.70   0.366455704
1564.80   0.378772259
1564.90   0.390363336
1565.00   0.416615039
1565.10   0.426239133
1565.20   0.435540557
1565.30   0.470644414
1565.40   0.482117146
1565.50   0.488911808
1565.60   0.539123893
1565.70   0.537369847
1565.80   0.544012070
1565.90   0.582443059
1566.00   0.613999069
1566.10   0.615254581
1566.20   0.651790381
1566.30   0.702829778
1566.40   0.712125301
1566.50   0.734155238
1566.60   0.773202837
1566.70   0.813353241
1566.80   0.837047279
1566.90   0.878009677
1567.00   0.915306151
1567.10   0.971861482
1567.20   1.012410522
1567.30   1.051121831
1567.40   1.083008051
1567.50   1.134924650
1567.60   1.200805664
1567.70   1.247463703
1567.80   1.287473679
1567.90   1.359195113
1568.00   1.448188782
1568.10   1.498296499
1568.20   1.578646541
1568.30   1.645564675
1568.40   1.721534848
1568.50   1.821253300
1568.60   1.937846303
1568.70   1.981464744
1568.80   2.104907751
1568.90   2.230487823
1569.00   2.335308790
1569.10   2.432268620
1569.20   2.572060108
1569.30   2.707046747
1569.40   2.846337557
1569.50   2.996639490
1569.60   3.128739357
1569.70   3.324707270
1569.80   3.476297855
1569.90   3.675409079
1570.00   3.830989838
1570.10   4.105857849
1570.20   4.371368408
1570.30   4.582855701
1570.40   4.788517952
1570.50   5.066451550
1570.60   5.359912872
1570.70   5.667402744
1570.80   5.981807232
1570.90   6.275261879
1571.00   6.675930500
1571.10   6.961976528
1571.20   7.322887421
1571.30   7.686698437
1571.40   8.190546036
1571.50   8.614289284
1571.60   9.128436089
1571.70   9.516878128
1571.80  10.098823550
1571.90  10.731448170
1572.00  11.281312940
1572.10  11.777636530
1572.20  12.435493470
1572.30  13.142143250
1572.40  13.795558930
1572.50  14.478169440
1572.60  14.974159240
1572.70  15.949887280
1572.80  16.724168780
1572.90  17.424068450
1573.00  18.167587280
1573.10  19.026964190
1573.20  20.046829220
1573.30  20.977077480
1573.40  21.758964540
1573.50  22.810537340
1573.60  23.952312470
1573.70  24.762681960
1573.80  25.880931850
1573.90  26.634716030
1574.00  27.941345210
1574.10  29.040155410
1574.20  30.068275450
1574.30  31.040918350
1574.40  32.139987950
1574.50  33.432792660
1574.60  34.455642700
1574.70  35.412395480
1574.80  36.546607970
1574.90  37.791347500
1575.00  38.913940430
1575.10  39.845623020
1575.20  40.869441990
1575.30  42.246643070
1575.40  43.288715360
1575.50  44.412879940
1575.60  45.247570040
1575.70  46.463306430
1575.80  47.546081540
1575.90  48.531402590
1576.00  49.230686190
1576.10  50.194179530
1576.20  51.282604220
1576.30  52.133132930
1576.40  52.840011600
1576.50  53.514343260
1576.60  54.486824040
1576.70  55.246318820
1576.80  55.880813600
1576.90  56.487632750
1577.00  57.193885800
1577.10  57.906906130
1577.20  58.392818450
1577.30  58.888805390
1577.40  59.427894590
1577.50  60.016162870
1577.60  60.427272800
1577.70  60.828525540
1577.80  61.152668000
1577.90  61.596649170
1578.00  61.925888060
1578.10  62.250621800
1578.20  62.465835570
1578.30  62.835800170
1578.40  63.143886570
1578.50  63.362747190
1578.60  63.589752200
1578.70  63.791591640
1578.80  64.028747560
1578.90  64.256698610
1579.00  64.459762570
1579.10  64.650543210
1579.20  64.913024900
1579.30  65.093757630
1579.40  65.249313350
1579.50  65.467597960
1579.60  65.711120610
1579.70  65.938201900
1579.80  66.130599980
1579.90  66.300254820
1580.00  66.520614620
1580.10  66.788978580
1580.20  67.036346440
1580.30  67.294296260
1580.40  67.508331300
1580.50  67.794097900
1580.60  68.092849730
1580.70  68.350524900
1580.80  68.559051510
1580.90  68.940597530
1581.00  69.273452760
1581.10  69.540679930
1581.20  69.810295100
1581.30  70.150505070
1581.40  70.525604250
1581.50  70.808837890
1581.60  71.109024050
1581.70  71.383148190
1581.80  71.827766420
1581.90  72.156105040
1582.00  72.410163880
1582.10  72.754898070
1582.20  73.191596980
1582.30  73.495262150
1582.40  73.829071040
1582.50  74.167236330
1582.60  74.569305420
1582.70  74.970123290
1582.80  75.293846130
1582.90  75.596916200
1583.00  75.931243900
1583.10  76.244308470
1583.20  76.589324950
1583.30  76.905113220
1583.40  77.160217290
1583.50  77.532730100
1583.60  77.871948240
1583.70  78.169509890
1583.80  78.384567260
1583.90  78.686172490
1584.00  79.019210820
1584.10  79.248275760
1584.20  79.509254460
1584.30  79.814613340
1584.40  80.068260190
1584.50  80.283607480
1584.60  80.491127010
1584.70  80.663368230
1584.80  80.885581970
1584.90  81.060050960
1585.00  81.213203430
1585.10  81.321159360
1585.20  81.514801030
1585.30  81.661811830
1585.40  81.775177000
1585.50  81.887420650
1585.60  81.967643740
1585.70  82.052772520
1585.80  82.118927000
1585.90  82.232398990
1586.00  82.252700810
1586.10  82.238807680
1586.20  82.218750000
1586.30  82.309928890
1586.40  82.281272890
1586.50  82.249092100
1586.60  82.227653500
1586.70  82.194381710
1586.80  82.155975340
1586.90  82.057853700
1587.00  81.925376890
1587.10  81.854560850
1587.20  81.769111630
1587.30  81.628646850
1587.40  81.448013310
1587.50  81.263519290
1587.60  81.102066040
1587.70  81.005729680
1587.80  80.828689580
1587.90  80.571228030
1588.00  80.252296450
1588.10  79.861862180
1588.20  79.517112730
1588.30  79.451713560
1588.40  79.093673710
1588.50  78.812934880
1588.60  78.495910640
1588.70  77.985328670
1588.80  77.606048580
1588.90  77.174812320
1589.00  76.797897340
1589.10  76.215896610
1589.20  75.658325200
1589.30  75.182151790
1589.40  74.650558470
1589.50  74.100639340
1589.60  73.320190430
1589.70  72.758735660
1589.80  72.129943850
1589.90  71.523941040
1590.00  70.563354490
1590.10  69.795059200
1590.20  69.023445130
1590.30  68.474349980
1590.40  67.442596440
1590.50  66.518249510
1590.60  65.646865840
1590.70  64.785224910
1590.80  63.804508210
1590.90  62.631546020
1591.00  61.901603700
1591.10  60.919773100
1591.20  59.716468810
1591.30  58.403301240
1591.40  57.402729030
1591.50  56.298912050
1591.60  55.260093690
1591.70  53.896129610
1591.80  52.694004060
1591.90  51.623271940
1592.00  50.605522160
1592.10  49.323833470
1592.20  47.854671480
1592.30  46.788822170
1592.40  45.554794310
1592.50  44.338363650
1592.60  42.707603450
1592.70  41.681243900
1592.80  40.509368900
1592.90  39.353420260
1593.00  37.916126250
1593.10  36.729042050
1593.20  35.516635890
1593.30  34.519725800
1593.40  33.236782070
1593.50  31.907772060
1593.60  30.860296250
1593.70  29.881959920
1593.80  28.810173030
1593.90  27.528604510
1594.00  26.446115490
1594.10  25.400581360
1594.20  24.542142870
1594.30  23.310060500
1594.40  22.417125700
1594.50  21.437301640
1594.60  20.579538350
1594.70  19.718721390
1594.80  18.790716170
1594.90  18.000226970
1595.00  17.297277450
1595.10  16.591810230
1595.20  15.649615290
1595.30  14.998223300
1595.40  14.407439230
1595.50  13.760662080
1595.60  13.067089080
1595.70  12.431093220
1595.80  11.826091770
1595.90  11.411043170
1596.00  10.731657980
1596.10  10.139794350
1596.20   9.706586838
1596.30   9.312716484
1596.40   8.950032234
1596.50   8.355411530
1596.60   7.999990940
1596.70   7.641685009
1596.80   7.340016842
1596.90   6.896180630
1597.00   6.597705364
1597.10   6.273676395
1597.20   6.011332035
1597.30   5.673520088
1597.40   5.416749001
1597.50   5.163256645
1597.60   4.941020966
1597.70   4.705930710
1597.80   4.418852329
1597.90   4.245334625
1598.00   4.078710079
1598.10   3.909369469
1598.20   3.661667109
1598.30   3.514799833
1598.40   3.342844248
1598.50   3.220000000
1598.60   3.048733473
1598.70   2.935075283
1598.80   2.788256645
1598.90   2.670255661
1599.00   2.570652008
1599.10   2.416326761
1599.20   2.327659845
1599.30   2.227928638
1599.40   2.125524521
1599.50   2.020742655
1599.60   1.937869191
1599.70   1.844406366
1599.80   1.786793351
1599.90   1.699342728
1600.00   1.633683920
1600.10   1.557133913
1600.20   1.511481524
1600.30   1.443166614
1600.40   1.366399765
1600.50   1.316636562
1600.60   1.276576400
1600.70   1.226866961
1600.80   1.181156516
1600.90   1.130000000
1601.00   1.074656129
1601.10   1.039196849
1601.20   0.981651247
1601.30   0.937884510
1601.40   0.903474987
1601.50   0.885045648
1601.60   0.842589438
1601.70   0.808513880
1601.80   0.777974010
1601.90   0.763963938
1602.00   0.742692709
1602.10   0.707761228
1602.20   0.670000000
1602.30   0.644275010
1602.40   0.637499750
1602.50   0.602161884
1602.60   0.578711450
1602.70   0.562004685
1602.80   0.543929935
1602.90   0.514850199
1603.00   0.496674001
1603.10   0.480435610
1603.20   0.471258670
1603.30   0.466828138
1603.40   0.440959543
1603.50   0.422652751
1603.60   0.403922975
1603.70   0.378754646
1603.80   0.383814961
1603.90   0.380499363
1604.00   0.365290612
1604.10   0.346434474
1604.20   0.338938057
1604.30   0.315644562
1604.40   0.319247425
1604.50   0.294172108
1604.60   0.302182287
1604.70   0.280219883
1604.80   0.276744306
1604.90   0.271720588
1605.00   0.263752669
1605.10   0.248681754
1605.20   0.236239076
1605.30   0.235271290
1605.40   0.227361217
1605.50   0.226397649
1605.60   0.208133668
1605.70   0.210105792
1605.80   0.210915580
1605.90   0.205410242
1606.00   0.187067732
1606.10   0.183368921
1606.20   0.202208191
1606.30   0.174501985
1606.40   0.173252493
1606.50   0.157973483
1606.60   0.156239867
1606.70   0.160859287
1606.80   0.153949156
1606.90   0.151859015
1607.00   0.141528070
1607.10   0.140487641
1607.20   0.138938889
1607.30   0.136536062
1607.40   0.131456062
1607.50   0.126983196
1607.60   0.126956478
1607.70   0.130164728
1607.80   0.107393622
1607.90   0.119851761
1608.00   0.118601777
1608.10   0.110116974
1608.20   0.113371477
1608.30   0.113315322
1608.40   0.099406458
1608.50   0.092392266
1608.60   0.107177183
1608.70   0.097979873
1608.80   0.102404632
1608.90   0.082917139
1609.00   0.091819584
1609.10   0.085816212
1609.20   0.081869751
1609.30  16.000000000
1609.40   0.074723206
1609.50   0.074160308
1609.60   0.072015166
1609.70   0.080167398
1609.80   0.070232213
1609.90   0.076331005
1610.00   0.077563971
1611.00   0.0